Time (s),Channel 1 (V)
0,0.0351165
0.00025,0.0603229
0.0005,0.0923035
0.00075,0.111791
0.001,0.136701
0.00125,0.158321
0.0015,0.17856
0.00175,0.190519
0.002,0.208248
0.00225,0.215633
0.0025,0.22021
0.00275,0.216788
0.003,0.219265
0.00325,0.208737
0.0035,0.201456
0.00375,0.18903
0.004,0.17735
0.00425,0.158907
0.0045,0.146352
0.00475,0.13683
0.005,0.120429
0.00525,0.113494
0.0055,0.100776
0.00575,0.101372
0.006,0.0897106
0.00625,0.0906065
0.0065,0.093773
0.00675,0.096725
0.007,0.11008
0.00725,0.116491
0.0075,0.124267
0.00775,0.144558
0.008,0.156934
0.00825,0.172691
0.0085,0.184663
0.00875,0.198677
0.009,0.208679
0.00925,0.220465
0.0095,0.223851
0.00975,0.235577
0.01,0.236251
0.01025,0.233455
0.0105,0.221039
0.01075,0.213017
0.011,0.192873
0.01125,0.183117
0.0115,0.159453
0.01175,0.133902
0.012,0.105434
0.01225,0.0821873
0.0125,0.0553295
0.01275,0.0270936
0.013,0.00221518
0.01325,-0.0251138
0.0135,-0.050932
0.01375,-0.0705706
0.014,-0.0853332
0.01425,-0.105101
0.0145,-0.11592
0.01475,-0.124484
0.015,-0.119716
0.01525,-0.12296
0.0155,-0.116125
0.01575,-0.111716
0.016,-0.0996187
0.01625,-0.0927554
0.0165,-0.0734837
0.01675,-0.0646014
0.017,-0.0492895
0.01725,-0.0347277
0.0175,-0.0213907
0.01775,-0.0102738
0.018,0.00409494
0.01825,0.014228
0.0185,0.0124961
0.01875,0.0235776
0.019,0.0217442
0.01925,0.0138464
0.0195,0.00411409
0.01975,-0.00339865
0.02,-0.0133138
0.02025,-0.0249392
0.0205,-0.0388026
0.02075,-0.0462453
0.021,-0.0676623
0.02125,-0.0733871
0.0215,-0.0889646
0.02175,-0.0935458
0.022,-0.104559
0.02225,-0.102911
0.0225,-0.0990396
0.02275,-0.0976317
0.023,-0.0917197
0.02325,-0.0805461
0.0235,-0.0625861
0.02375,-0.0481469
0.024,-0.0208475
0.02425,-0.00030701
0.0245,0.0275468
0.02475,0.0578137
0.025,0.0877767
0.02525,0.118891
0.0255,0.144971
0.02575,0.170461
0.026,0.193343
0.02625,0.217776
0.0265,0.232987
0.02675,0.249764
0.027,0.268565
0.02725,0.271703
0.0275,0.282107
0.02775,0.275123
0.028,0.272011
0.02825,0.271204
0.0285,0.260772
0.02875,0.255513
0.029,0.240377
0.02925,0.224973
0.0295,0.215185
0.02975,0.200026
0.03,0.188921
0.03025,0.174337
0.0305,0.164641
0.03075,0.164897
0.031,0.163073
0.03125,0.154612
0.0315,0.163891
0.03175,0.163804
0.032,0.17148
0.03225,0.184644
0.0325,0.193775
0.03275,0.208127
0.033,0.226917
0.03325,0.244969
0.0335,0.255041
0.03375,0.273585
0.034,0.2859
0.03425,0.288305
0.0345,0.295661
0.03475,0.309361
0.035,0.307207
0.03525,0.302199
0.0355,0.300904
0.03575,0.291149
0.036,0.268969
0.03625,0.259132
0.0365,0.238283
0.03675,0.208115
0.037,0.184522
0.03725,0.16237
0.0375,0.135003
0.03775,0.109256
0.038,0.0821341
0.03825,0.0548004
0.0385,0.0344594
0.03875,0.0101632
0.039,-0.00905411
0.03925,-0.0201089
0.0395,-0.0259425
0.03975,-0.0401228
0.04,-0.0439135
0.04025,-0.0398652
0.0405,-0.0354247
0.04075,-0.026484
0.041,-0.0125268
0.04125,0.00153413
0.0415,0.0100433
0.04175,0.02333
0.042,0.0384283
0.04225,0.0589233
0.0425,0.0666927
0.04275,0.0873937
0.043,0.0971429
0.04325,0.106643
0.0435,0.110335
0.04375,0.110751
0.044,0.108034
0.04425,0.107279
0.0445,0.0984122
0.04475,0.0955655
0.045,0.084832
0.04525,0.0742236
0.0455,0.0595562
0.04575,0.0498946
0.046,0.0286325
0.04625,0.0171896
0.0465,0.0065203
0.04675,0.00289237
0.047,-0.00185491
0.04725,-0.00208866
0.0475,0.00162692
0.04775,0.00130351
0.048,0.009468
0.04825,0.0233693
0.0485,0.0396759
0.04875,0.0594287
0.049,0.0781305
0.04925,0.103183
0.0495,0.138905
0.04975,0.163858
0.05,0.190233
0.05025,0.226744
0.0505,0.249538
0.05075,0.278427
0.051,0.300999
0.05125,0.330828
0.0515,0.350767
0.05175,0.366092
0.052,0.377445
0.05225,0.387042
0.0525,0.393907
0.05275,0.388974
0.053,0.387662
0.05325,0.388938
0.0535,0.372756
0.05375,0.36616
0.054,0.35906
0.05425,0.339761
0.0545,0.325918
0.05475,0.313109
0.055,0.303666
0.05525,0.297343
0.0555,0.289056
0.05575,0.284055
0.056,0.273846
0.05625,0.278295
0.0565,0.277453
0.05675,0.286715
0.057,0.298433
0.05725,0.304221
0.0575,0.318751
0.05775,0.330812
0.058,0.353231
0.05825,0.362637
0.0585,0.377077
0.05875,0.392475
0.059,0.4068
0.05925,0.422711
0.0595,0.425294
0.05975,0.433739
0.06,0.438741
0.06025,0.436447
0.0605,0.429777
0.06075,0.421103
0.061,0.406129
0.06125,0.391008
0.0615,0.364594
0.06175,0.348118
0.062,0.31768
0.06225,0.29091
0.0625,0.263291
0.06275,0.244362
0.063,0.211861
0.06325,0.194704
0.0635,0.163189
0.06375,0.151897
0.064,0.126548
0.06425,0.11924
0.0645,0.104192
0.06475,0.0991262
0.065,0.0957511
0.06525,0.0986109
0.0655,0.106565
0.06575,0.111197
0.066,0.124825
0.06625,0.136526
0.0665,0.15349
0.06675,0.164597
0.067,0.183368
0.06725,0.205663
0.0675,0.219429
0.06775,0.229388
0.068,0.236808
0.06825,0.249933
0.0685,0.259354
0.06875,0.262784
0.069,0.259369
0.06925,0.255565
0.0695,0.247795
0.06975,0.239399
0.07,0.227925
0.07025,0.223849
0.0705,0.206378
0.07075,0.19551
0.071,0.181727
0.07125,0.177232
0.0715,0.15874
0.07175,0.153771
0.072,0.15153
0.07225,0.150003
0.0725,0.154447
0.07275,0.154695
0.073,0.169958
0.07325,0.17533
0.0735,0.192594
0.07375,0.218853
0.074,0.242897
0.07425,0.263384
0.0745,0.294736
0.07475,0.316948
0.075,0.356389
0.07525,0.376658
0.0755,0.414696
0.07575,0.441662
0.076,0.46429
0.07625,0.491597
0.0765,0.503521
0.07675,0.521014
0.077,0.538399
0.07725,0.544072
0.0775,0.551774
0.07775,0.556887
0.078,0.549388
0.07825,0.544549
0.0785,0.535693
0.07875,0.533231
0.079,0.515833
0.07925,0.5104
0.0795,0.492052
0.07975,0.482725
0.08,0.466918
0.08025,0.465178
0.0805,0.45854
0.08075,0.452533
0.081,0.450236
0.08125,0.450162
0.0815,0.446961
0.08175,0.45514
0.082,0.468645
0.08225,0.478229
0.0825,0.493983
0.08275,0.500097
0.083,0.520093
0.08325,0.539266
0.0835,0.549644
0.08375,0.566052
0.084,0.58139
0.08425,0.589766
0.0845,0.597681
0.08475,0.6105
0.085,0.606661
0.08525,0.600942
0.0855,0.597245
0.08575,0.58568
0.086,0.573349
0.08625,0.561853
0.0865,0.544172
0.08675,0.514743
0.087,0.492904
0.08725,0.464336
0.0875,0.43873
0.08775,0.415906
0.088,0.395232
0.08825,0.369951
0.0885,0.344597
0.08875,0.319828
0.089,0.30826
0.08925,0.296508
0.0895,0.288909
0.08975,0.277151
0.09,0.275106
0.09025,0.276248
0.0905,0.28746
0.09075,0.294957
0.091,0.300543
0.09125,0.32193
0.0915,0.331556
0.09175,0.352065
0.092,0.361374
0.09225,0.384066
0.0925,0.392433
0.09275,0.404318
0.093,0.420464
0.09325,0.432913
0.0935,0.433787
0.09375,0.438179
0.094,0.43952
0.09425,0.438987
0.0945,0.434266
0.09475,0.427268
0.095,0.417127
0.09525,0.401632
0.0955,0.394309
0.09575,0.375341
0.096,0.365403
0.09625,0.352822
0.0965,0.340337
0.09675,0.331655
0.097,0.329894
0.09725,0.327847
0.0975,0.331499
0.09775,0.333348
0.098,0.341938
0.09825,0.362781
0.0985,0.376115
0.09875,0.400082
0.099,0.421604
0.09925,0.442785
0.0995,0.470052
0.09975,0.500167
0.1,0.528628
0.10025,0.560235
0.1005,0.594352
0.10075,0.61842
0.101,0.640943
0.10125,0.672336
0.1015,0.690546
0.10175,0.701999
0.102,0.717505
0.10225,0.726538
0.1025,0.735635
0.10275,0.737807
0.103,0.731407
0.10325,0.730196
0.1035,0.723783
0.10375,0.707993
0.104,0.700033
0.10425,0.685571
0.1045,0.674859
0.10475,0.664619
0.105,0.647841
0.10525,0.634856
0.1055,0.636792
0.10575,0.62287
0.106,0.622328
0.10625,0.625963
0.1065,0.62354
0.10675,0.635993
0.107,0.63803
0.10725,0.650506
0.1075,0.661416
0.10775,0.677196
0.108,0.697826
0.10825,0.712593
0.1085,0.722463
0.10875,0.740953
0.109,0.750331
0.10925,0.763931
0.1095,0.777247
0.10975,0.777805
0.11,0.784911
0.11025,0.780121
0.1105,0.776695
0.11075,0.762128
0.111,0.745789
0.11125,0.73211
0.1115,0.706763
0.11175,0.692583
0.112,0.662703
0.11225,0.639572
0.1125,0.60829
0.11275,0.582856
0.113,0.560515
0.11325,0.533792
0.1135,0.510154
0.11375,0.49035
0.114,0.477161
0.11425,0.456487
0.1145,0.452184
0.11475,0.441781
0.115,0.444857
0.11525,0.4419
0.1155,0.450022
0.11575,0.460678
0.116,0.465086
0.11625,0.48263
0.1165,0.491554
0.11675,0.507596
0.117,0.527363
0.11725,0.544208
0.1175,0.557962
0.11775,0.56582
0.118,0.575519
0.11825,0.582526
0.1185,0.587163
0.11875,0.59433
0.119,0.597507
0.11925,0.595749
0.1195,0.58244
0.11975,0.576737
0.12,0.565855
0.12025,0.558586
0.1205,0.541182
0.12075,0.532976
0.121,0.518859
0.12125,0.50075
0.1215,0.490543
0.12175,0.485013
0.122,0.477605
0.12225,0.479671
0.1225,0.474441
0.12275,0.482068
0.123,0.494057
0.12325,0.498471
0.1235,0.523138
0.12375,0.537886
0.124,0.560672
0.12425,0.584209
0.1245,0.60963
0.12475,0.644751
0.125,0.66789
0.12525,0.701758
0.1255,0.732289
0.12575,0.758603
0.126,0.782576
0.12625,0.807506
0.1265,0.8223
0.12675,0.840004
0.127,0.850407
0.12725,0.856155
0.1275,0.866397
0.12775,0.864603
0.128,0.859058
0.12825,0.854622
0.1285,0.848379
0.12875,0.835884
0.129,0.823907
0.12925,0.812405
0.1295,0.797901
0.12975,0.786662
0.13,0.773362
0.13025,0.764631
0.1305,0.751324
0.13075,0.741859
0.131,0.738406
0.13125,0.744403
0.1315,0.74046
0.13175,0.750933
0.132,0.756036
0.13225,0.768558
0.1325,0.777155
0.13275,0.788531
0.133,0.802739
0.13325,0.822525
0.1335,0.839037
0.13375,0.84431
0.134,0.861151
0.13425,0.873081
0.1345,0.878906
0.13475,0.885255
0.135,0.879366
0.13525,0.878893
0.1355,0.867811
0.13575,0.854392
0.136,0.846477
0.13625,0.828368
0.1365,0.804897
0.13675,0.778497
0.137,0.757657
0.13725,0.729453
0.1375,0.698242
0.13775,0.673564
0.138,0.643636
0.13825,0.622111
0.1385,0.595548
0.13875,0.575904
0.139,0.560127
0.13925,0.544087
0.1395,0.530167
0.13975,0.520825
0.14,0.52391
0.14025,0.51448
0.1405,0.518804
0.14075,0.531544
0.141,0.535573
0.14125,0.554637
0.1415,0.56417
0.14175,0.582034
0.142,0.589358
0.14225,0.605025
0.1425,0.615753
0.14275,0.634985
0.143,0.643684
0.14325,0.642658
0.1435,0.647373
0.14375,0.651492
0.144,0.654501
0.14425,0.646942
0.1445,0.640902
0.14475,0.626115
0.145,0.618079
0.14525,0.600702
0.1455,0.585374
0.14575,0.57753
0.146,0.557255
0.14625,0.549509
0.1465,0.532542
0.14675,0.523941
0.147,0.518456
0.14725,0.510526
0.1475,0.510318
0.14775,0.519635
0.148,0.528755
0.14825,0.535596
0.1485,0.552957
0.14875,0.567802
0.149,0.587245
0.14925,0.613182
0.1495,0.642106
0.14975,0.66808
0.15,0.691142
0.15025,0.7181
0.1505,0.748467
0.15075,0.774268
0.151,0.794299
0.15125,0.819315
0.1515,0.833209
0.15175,0.852554
0.152,0.862071
0.15225,0.864969
0.1525,0.866891
0.15275,0.867309
0.153,0.865911
0.15325,0.854448
0.1535,0.849884
0.15375,0.832471
0.154,0.825007
0.15425,0.80942
0.1545,0.789125
0.15475,0.776438
0.155,0.758137
0.15525,0.749002
0.1555,0.736457
0.15575,0.730636
0.156,0.728916
0.15625,0.726414
0.1565,0.725163
0.15675,0.727007
0.157,0.738077
0.15725,0.737999
0.1575,0.757465
0.15775,0.763756
0.158,0.77373
0.15825,0.789217
0.1585,0.803113
0.15875,0.81902
0.159,0.82439
0.15925,0.831079
0.1595,0.838159
0.15975,0.844595
0.16,0.843581
0.16025,0.839309
0.1605,0.829906
0.16075,0.812103
0.161,0.796406
0.16125,0.784078
0.1615,0.7555
0.16175,0.73385
0.162,0.701456
0.16225,0.679577
0.1625,0.64344
0.16275,0.612613
0.163,0.589312
0.16325,0.559479
0.1635,0.529367
0.16375,0.507039
0.164,0.487615
0.16425,0.476349
0.1645,0.465256
0.16475,0.448009
0.165,0.446268
0.16525,0.450527
0.1655,0.446064
0.16575,0.449056
0.166,0.45753
0.16625,0.467661
0.1665,0.478465
0.16675,0.490048
0.167,0.511136
0.16725,0.520578
0.1675,0.531781
0.16775,0.542608
0.168,0.545636
0.16825,0.548747
0.1685,0.555476
0.16875,0.555868
0.169,0.552252
0.16925,0.546979
0.1695,0.532653
0.16975,0.524051
0.17,0.513502
0.17025,0.496988
0.1705,0.478708
0.17075,0.470353
0.171,0.445502
0.17125,0.437349
0.1715,0.418174
0.17175,0.412754
0.172,0.399506
0.17225,0.399974
0.1725,0.395232
0.17275,0.39635
0.173,0.404227
0.17325,0.409031
0.1735,0.423802
0.17375,0.442857
0.174,0.459418
0.17425,0.486099
0.1745,0.503079
0.17475,0.529962
0.175,0.554539
0.17525,0.585579
0.1755,0.608031
0.17575,0.634564
0.176,0.650347
0.17625,0.677878
0.1765,0.685686
0.17675,0.697775
0.177,0.708984
0.17725,0.711812
0.1775,0.716438
0.17775,0.711303
0.178,0.714159
0.17825,0.705349
0.1785,0.69245
0.17875,0.672696
0.179,0.659554
0.17925,0.639762
0.1795,0.626091
0.17975,0.615364
0.18,0.596081
0.18025,0.576819
0.1805,0.573764
0.18075,0.558328
0.181,0.557338
0.18125,0.547186
0.1815,0.544547
0.18175,0.551734
0.182,0.558246
0.18225,0.55971
0.1825,0.56691
0.18275,0.577312
0.183,0.587571
0.18325,0.606403
0.1835,0.611212
0.18375,0.628383
0.184,0.632596
0.18425,0.645
0.1845,0.643067
0.18475,0.649899
0.185,0.640754
0.18525,0.638289
0.1855,0.627463
0.18575,0.610823
0.186,0.599875
0.18625,0.577731
0.1865,0.553814
0.18675,0.523014
0.187,0.495088
0.18725,0.460338
0.1875,0.435822
0.18775,0.406944
0.188,0.37024
0.18825,0.342478
0.1885,0.313146
0.18875,0.291987
0.189,0.274196
0.18925,0.252711
0.1895,0.243079
0.18975,0.226647
0.19,0.220709
0.19025,0.217284
0.1905,0.222392
0.19075,0.225807
0.191,0.229526
0.19125,0.238745
0.1915,0.245326
0.19175,0.264742
0.192,0.272596
0.19225,0.281728
0.1925,0.29418
0.19275,0.300519
0.193,0.308923
0.19325,0.31322
0.1935,0.308948
0.19375,0.308658
0.194,0.308644
0.19425,0.304026
0.1945,0.294461
0.19475,0.278322
0.195,0.260691
0.19525,0.245615
0.1955,0.231529
0.19575,0.216109
0.196,0.19546
0.19625,0.178975
0.1965,0.162212
0.19675,0.155555
0.197,0.147502
0.19725,0.134623
0.1975,0.133292
0.19775,0.137569
0.198,0.137996
0.19825,0.14576
0.1985,0.160633
0.19875,0.176598
0.199,0.188296
0.19925,0.208884
0.1995,0.23725
0.19975,0.260498
0.2,0.283866
0.20025,0.316105
0.2005,0.335257
0.20075,0.36058
0.201,0.379291
0.20125,0.402702
0.2015,0.417602
0.20175,0.422923
0.202,0.430013
0.20225,0.438733
0.2025,0.442482
0.20275,0.438605
0.203,0.427618
0.20325,0.418657
0.2035,0.405656
0.20375,0.388265
0.204,0.377841
0.20425,0.354608
0.2045,0.337755
0.20475,0.324939
0.205,0.303784
0.20525,0.295842
0.2055,0.275692
0.20575,0.274785
0.206,0.264778
0.20625,0.258463
0.2065,0.260068
0.20675,0.253001
0.207,0.262742
0.20725,0.270692
0.2075,0.279837
0.20775,0.284139
0.208,0.295298
0.20825,0.305939
0.2085,0.32243
0.20875,0.327731
0.209,0.331892
0.20925,0.342484
0.2095,0.345228
0.20975,0.3494
0.21,0.341238
0.21025,0.338815
0.2105,0.326168
0.21075,0.3106
0.211,0.296765
0.21125,0.272959
0.2115,0.243521
0.21175,0.215572
0.212,0.19213
0.21225,0.162124
0.2125,0.131366
0.21275,0.0937071
0.213,0.0626275
0.21325,0.0330039
0.2135,0.00707033
0.21375,-0.0145976
0.214,-0.0329609
0.21425,-0.0574089
0.2145,-0.0676783
0.21475,-0.0765181
0.215,-0.080998
0.21525,-0.092117
0.2155,-0.0836257
0.21575,-0.0830745
0.216,-0.073717
0.21625,-0.0705871
0.2165,-0.0582734
0.21675,-0.0481008
0.217,-0.0420949
0.21725,-0.0295357
0.2175,-0.0185415
0.21775,-0.00454974
0.218,0.000284523
0.21825,6.02E-05
0.2185,0.00739521
0.21875,0.00501105
0.219,0.000913337
0.21925,-0.0109427
0.2195,-0.018227
0.21975,-0.033166
0.22,-0.0454914
0.22025,-0.0587159
0.2205,-0.0779928
0.22075,-0.0992847
0.221,-0.115703
0.22125,-0.130153
0.2215,-0.143729
0.22175,-0.155217
0.222,-0.169464
0.22225,-0.171084
0.2225,-0.178941
0.22275,-0.178712
0.223,-0.170234
0.22325,-0.167483
0.2235,-0.151231
0.22375,-0.132682
0.224,-0.112017
0.22425,-0.0950462
0.2245,-0.0686466
0.22475,-0.0487623
0.225,-0.0267419
0.22525,0.00280792
0.2255,0.0269352
0.22575,0.0523508
0.226,0.0741911
0.22625,0.0939545
0.2265,0.109928
0.22675,0.117965
0.227,0.123877
0.22725,0.128901
0.2275,0.128708
0.22775,0.134392
0.228,0.123367
0.22825,0.11145
0.2285,0.100539
0.22875,0.0904115
0.229,0.07717
0.22925,0.0599964
0.2295,0.0371713
0.22975,0.0203721
0.23,0.0105707
0.23025,-0.00642905
0.2305,-0.0242025
0.23075,-0.0328276
0.231,-0.0344903
0.23125,-0.0380028
0.2315,-0.0385267
0.23175,-0.0397306
0.232,-0.0339514
0.23225,-0.0330147
0.2325,-0.0226131
0.23275,-0.00512392
0.233,0.00562864
0.23325,0.0102774
0.2335,0.024485
0.23375,0.038906
0.234,0.0433047
0.23425,0.0525709
0.2345,0.0600194
0.23475,0.0603032
0.235,0.0543362
0.23525,0.0471821
0.2355,0.0386664
0.23575,0.0239044
0.236,0.00651673
0.23625,-0.0122258
0.2365,-0.0380967
0.23675,-0.0623903
0.237,-0.0860516
0.23725,-0.120043
0.2375,-0.152114
0.23775,-0.18029
0.238,-0.215382
0.23825,-0.238132
0.2385,-0.264096
0.23875,-0.286686
0.239,-0.312999
0.23925,-0.32666
0.2395,-0.336156
0.23975,-0.346323
0.24,-0.358867
0.24025,-0.356164
0.2405,-0.361261
0.24075,-0.357241
0.241,-0.343263
0.24125,-0.332186
0.2415,-0.329176
0.24175,-0.313477
0.242,-0.305078
0.24225,-0.288616
0.2425,-0.274703
0.24275,-0.270277
0.243,-0.257917
0.24325,-0.253493
0.2435,-0.248022
0.24375,-0.2562
0.244,-0.260541
0.24425,-0.258678
0.2445,-0.269553
0.24475,-0.282624
0.245,-0.297159
0.24525,-0.31008
0.2455,-0.326815
0.24575,-0.34112
0.246,-0.360459
0.24625,-0.371821
0.2465,-0.384985
0.24675,-0.39475
0.247,-0.410831
0.24725,-0.406865
0.2475,-0.41258
0.24775,-0.408513
0.248,-0.403605
0.24825,-0.393128
0.2485,-0.376511
0.24875,-0.366076
0.249,-0.341844
0.24925,-0.319648
0.2495,-0.301505
0.24975,-0.273692
0.25,-0.248091
0.25025,-0.220731
0.2505,-0.188372
0.25075,-0.170961
0.251,-0.141172
0.25125,-0.121322
0.2515,-0.105034
0.25175,-0.096046
0.252,-0.0824666
0.25225,-0.0777976
0.2525,-0.075161
0.25275,-0.0812575
0.253,-0.0817576
0.25325,-0.0928265
0.2535,-0.102968
0.25375,-0.107516
0.254,-0.122306
0.25425,-0.139279
0.2545,-0.153096
0.25475,-0.173667
0.255,-0.187925
0.25525,-0.201589
0.2555,-0.210046
0.25575,-0.21334
0.256,-0.223385
0.25625,-0.230319
0.2565,-0.223404
0.25675,-0.222086
0.257,-0.213922
0.25725,-0.209434
0.2575,-0.19694
0.25775,-0.188248
0.258,-0.174635
0.25825,-0.159095
0.2585,-0.14158
0.25875,-0.133764
0.259,-0.123107
0.25925,-0.113385
0.2595,-0.110176
0.25975,-0.103464
0.26,-0.10088
0.26025,-0.107643
0.2605,-0.114521
0.26075,-0.128214
0.261,-0.145967
0.26125,-0.168276
0.2615,-0.182745
0.26175,-0.207588
0.262,-0.235935
0.26225,-0.265995
0.2625,-0.298811
0.26275,-0.322603
0.263,-0.34804
0.26325,-0.377522
0.2635,-0.40394
0.26375,-0.427831
0.264,-0.448494
0.26425,-0.463138
0.2645,-0.469403
0.26475,-0.483508
0.265,-0.486987
0.26525,-0.48236
0.2655,-0.481329
0.26575,-0.470573
0.266,-0.468698
0.26625,-0.452537
0.2665,-0.43604
0.26675,-0.431005
0.267,-0.409895
0.26725,-0.400201
0.2675,-0.383717
0.26775,-0.373939
0.268,-0.369553
0.26825,-0.362463
0.2685,-0.350078
0.26875,-0.349553
0.269,-0.35649
0.26925,-0.357574
0.2695,-0.368252
0.26975,-0.38008
0.27,-0.38773
0.27025,-0.401985
0.2705,-0.416697
0.27075,-0.42765
0.271,-0.444591
0.27125,-0.450064
0.2715,-0.462091
0.27175,-0.479852
0.272,-0.47807
0.27225,-0.483032
0.2725,-0.481652
0.27275,-0.481436
0.273,-0.469755
0.27325,-0.46165
0.2735,-0.450326
0.27375,-0.425262
0.274,-0.403645
0.27425,-0.378488
0.2745,-0.351176
0.27475,-0.332254
0.275,-0.298369
0.27525,-0.274781
0.2755,-0.238203
0.27575,-0.2134
0.276,-0.188017
0.27625,-0.166309
0.2765,-0.150836
0.27675,-0.13923
0.277,-0.128232
0.27725,-0.116185
0.2775,-0.107399
0.27775,-0.113837
0.278,-0.113559
0.27825,-0.115552
0.2785,-0.133451
0.27875,-0.141921
0.279,-0.152167
0.27925,-0.16671
0.2795,-0.181343
0.27975,-0.190225
0.28,-0.207664
0.28025,-0.217997
0.2805,-0.223569
0.28075,-0.231972
0.281,-0.236519
0.28125,-0.235264
0.2815,-0.233236
0.28175,-0.232009
0.282,-0.215669
0.28225,-0.207169
0.2825,-0.197013
0.28275,-0.182271
0.283,-0.172025
0.28325,-0.156535
0.2835,-0.139968
0.28375,-0.1256
0.284,-0.115432
0.28425,-0.0978052
0.2845,-0.0940654
0.28475,-0.0919941
0.285,-0.0889194
0.28525,-0.0885609
0.2855,-0.101697
0.28575,-0.106615
0.286,-0.124704
0.28625,-0.135572
0.2865,-0.156153
0.28675,-0.187222
0.287,-0.206362
0.28725,-0.232135
0.2875,-0.258622
0.28775,-0.286271
0.288,-0.312857
0.28825,-0.342462
0.2885,-0.365793
0.28875,-0.384186
0.289,-0.395504
0.28925,-0.414814
0.2895,-0.428778
0.28975,-0.425592
0.29,-0.431354
0.29025,-0.431715
0.2905,-0.422267
0.29075,-0.415944
0.291,-0.407579
0.29125,-0.396994
0.2915,-0.38443
0.29175,-0.362674
0.292,-0.351247
0.29225,-0.338519
0.2925,-0.321735
0.29275,-0.302424
0.293,-0.292746
0.29325,-0.289321
0.2935,-0.277252
0.29375,-0.276871
0.294,-0.28323
0.29425,-0.285772
0.2945,-0.287073
0.29475,-0.294391
0.295,-0.306085
0.29525,-0.315921
0.2955,-0.329845
0.29575,-0.346201
0.296,-0.35308
0.29625,-0.370077
0.2965,-0.377192
0.29675,-0.388822
0.297,-0.390634
0.29725,-0.394717
0.2975,-0.385353
0.29775,-0.381173
0.298,-0.373641
0.29825,-0.367618
0.2985,-0.343392
0.29875,-0.328327
0.299,-0.304124
0.29925,-0.277486
0.2995,-0.249933
0.29975,-0.216547
0.3,-0.193518
0.30025,-0.157702
0.3005,-0.127675
0.30075,-0.103098
0.301,-0.0747549
0.30125,-0.0548454
0.3015,-0.0358379
0.30175,-0.0151811
0.302,-0.0078445
0.30225,0.00229907
0.3025,0.00814876
0.30275,0.0143837
0.303,0.0132403
0.30325,-0.000629659
0.3035,-0.00406993
0.30375,-0.0151922
0.304,-0.0230519
0.30425,-0.0362209
0.3045,-0.0482911
0.30475,-0.0657063
0.305,-0.0774013
0.30525,-0.0801583
0.3055,-0.0864151
0.30575,-0.093036
0.306,-0.101812
0.30625,-0.101815
0.3065,-0.0965567
0.30675,-0.088331
0.307,-0.0785526
0.30725,-0.0664387
0.3075,-0.0515925
0.30775,-0.0417403
0.308,-0.0252054
0.30825,-0.00423872
0.3085,0.00365496
0.30875,0.0181179
0.309,0.0332302
0.30925,0.0503943
0.3095,0.0516573
0.30975,0.0640229
0.31,0.0663937
0.31025,0.0619151
0.3105,0.0533182
0.31075,0.0429582
0.311,0.0364756
0.31125,0.0182434
0.3115,-0.00139914
0.31175,-0.0240507
0.312,-0.0535275
0.31225,-0.0746213
0.3125,-0.106311
0.31275,-0.125794
0.313,-0.152724
0.31325,-0.179735
0.3135,-0.20484
0.31375,-0.224495
0.314,-0.238156
0.31425,-0.249084
0.3145,-0.261751
0.31475,-0.260889
0.315,-0.271016
0.31525,-0.268695
0.3155,-0.254489
0.31575,-0.255071
0.316,-0.237689
0.31625,-0.225149
0.3165,-0.213313
0.31675,-0.198671
0.317,-0.183317
0.31725,-0.166349
0.3175,-0.145305
0.31775,-0.130495
0.318,-0.119202
0.31825,-0.11444
0.3185,-0.104835
0.31875,-0.102466
0.319,-0.10584
0.31925,-0.109375
0.3195,-0.11562
0.31975,-0.122935
0.32,-0.130754
0.32025,-0.140184
0.3205,-0.152184
0.32075,-0.162937
0.321,-0.173881
0.32125,-0.185364
0.3215,-0.194777
0.32175,-0.204684
0.322,-0.213646
0.32225,-0.209426
0.3225,-0.214828
0.32275,-0.203232
0.323,-0.195492
0.32325,-0.185321
0.3235,-0.165203
0.32375,-0.140737
0.324,-0.119197
0.32425,-0.0967785
0.3245,-0.071374
0.32475,-0.035877
0.325,-0.012218
0.32525,0.0192774
0.3255,0.0514224
0.32575,0.0822139
0.326,0.0991477
0.32625,0.122044
0.3265,0.150589
0.32675,0.166182
0.327,0.176161
0.32725,0.186016
0.3275,0.193623
0.32775,0.196531
0.328,0.191879
0.32825,0.190595
0.3285,0.183157
0.32875,0.165325
0.329,0.156396
0.32925,0.144869
0.3295,0.132619
0.32975,0.119882
0.33,0.105764
0.33025,0.0982574
0.3305,0.0966619
0.33075,0.0878107
0.331,0.0803351
0.33125,0.0850435
0.3315,0.0899464
0.33175,0.0958555
0.332,0.0993916
0.33225,0.113715
0.3325,0.127674
0.33275,0.144318
0.333,0.16016
0.33325,0.174432
0.3335,0.187594
0.33375,0.204577
0.334,0.211328
0.33425,0.2218
0.3345,0.234057
0.33475,0.242751
0.335,0.235987
0.33525,0.241507
0.3355,0.232189
0.33575,0.227657
0.336,0.213906
0.33625,0.193298
0.3365,0.17314
0.33675,0.148069
0.337,0.123833
0.33725,0.095032
0.3375,0.0732315
0.33775,0.0488189
0.338,0.0180056
0.33825,-0.0015619
0.3385,-0.0253221
0.33875,-0.0483016
0.339,-0.0605944
0.33925,-0.0828081
0.3395,-0.091574
0.33975,-0.0921554
0.34,-0.100443
0.34025,-0.0920168
0.3405,-0.0927108
0.34075,-0.0843305
0.341,-0.0746419
0.34125,-0.0614773
0.3415,-0.046111
0.34175,-0.028161
0.342,-0.00953129
0.34225,-0.00302321
0.3425,0.0199334
0.34275,0.029724
0.343,0.0411196
0.34325,0.0447708
0.3435,0.0528717
0.34375,0.0574101
0.344,0.0529045
0.34425,0.0568719
0.3445,0.0452527
0.34475,0.0354055
0.345,0.0254419
0.34525,0.0115654
0.3455,0.0076337
0.34575,-0.0130507
0.346,-0.0216114
0.34625,-0.0393515
0.3465,-0.042819
0.34675,-0.057344
0.347,-0.0635935
0.34725,-0.0635057
0.3475,-0.0560162
0.34775,-0.0603313
0.348,-0.0522364
0.34825,-0.0361694
0.3485,-0.0199578
0.34875,0.00350714
0.349,0.0232647
0.34925,0.0509172
0.3495,0.0715967
0.34975,0.107568
0.35,0.136382
0.35025,0.163612
0.3505,0.191018
0.35075,0.218334
0.351,0.241021
0.35125,0.268764
0.3515,0.286479
0.35175,0.302856
0.352,0.313391
0.35225,0.316237
0.3525,0.324512
0.35275,0.326768
0.353,0.326974
0.35325,0.320512
0.3535,0.311734
0.35375,0.294132
0.354,0.28436
0.35425,0.271644
0.3545,0.253626
0.35475,0.242003
0.355,0.236722
0.35525,0.223563
0.3555,0.212443
0.35575,0.202541
0.356,0.205082
0.35625,0.201198
0.3565,0.207424
0.35675,0.205062
0.357,0.213183
0.35725,0.221566
0.3575,0.238093
0.35775,0.24745
0.358,0.267825
0.35825,0.28084
0.3585,0.298443
0.35875,0.304783
0.359,0.324057
0.35925,0.333804
0.3595,0.340462
0.35975,0.344944
0.36,0.344323
0.36025,0.343038
0.3605,0.334344
0.36075,0.317706
0.361,0.307731
0.36125,0.291971
0.3615,0.269646
0.36175,0.246781
0.362,0.223314
0.36225,0.193431
0.3625,0.167007
0.36275,0.13251
0.363,0.106271
0.36325,0.0840067
0.3635,0.0577116
0.36375,0.0406512
0.364,0.0171807
0.36425,0.00810546
0.3645,-0.00971651
0.36475,-0.0157347
0.365,-0.0186009
0.36525,-0.0155967
0.3655,-0.0151098
0.36575,-0.0100565
0.366,0.00204356
0.36625,0.0144334
0.3665,0.0324485
0.36675,0.0372211
0.367,0.0589548
0.36725,0.066501
0.3675,0.0821096
0.36775,0.0926458
0.368,0.102286
0.36825,0.116401
0.3685,0.120813
0.36875,0.121351
0.369,0.118342
0.36925,0.107774
0.3695,0.107721
0.36975,0.0986172
0.37,0.0883939
0.37025,0.0749135
0.3705,0.0603621
0.37075,0.0420496
0.371,0.026253
0.37125,0.0176879
0.3715,0.0073058
0.37175,-0.00954592
0.372,-0.013234
0.37225,-0.0167812
0.3725,-0.0141359
0.37275,-0.00795483
0.373,-0.00721162
0.37325,0.00248025
0.3735,0.0172172
0.37375,0.0383544
0.374,0.0619938
0.37425,0.0850279
0.3745,0.11206
0.37475,0.133602
0.375,0.160066
0.37525,0.192735
0.3755,0.223328
0.37575,0.248016
0.376,0.272297
0.37625,0.292187
0.3765,0.312713
0.37675,0.321468
0.377,0.332655
0.37725,0.340461
0.3775,0.345138
0.37775,0.346903
0.378,0.344396
0.37825,0.336344
0.3785,0.328585
0.37875,0.317091
0.379,0.303208
0.37925,0.283738
0.3795,0.273422
0.37975,0.253247
0.38,0.239653
0.38025,0.231315
0.3805,0.216909
0.38075,0.216812
0.381,0.209453
0.38125,0.205089
0.3815,0.202485
0.38175,0.212242
0.382,0.212894
0.38225,0.229701
0.3825,0.240619
0.38275,0.251783
0.383,0.262422
0.38325,0.274948
0.3835,0.292711
0.38375,0.299807
0.384,0.311405
0.38425,0.32206
0.3845,0.331746
0.38475,0.33493
0.385,0.335267
0.38525,0.325306
0.3855,0.313843
0.38575,0.308259
0.386,0.294866
0.38625,0.268209
0.3865,0.244603
0.38675,0.226486
0.387,0.194998
0.38725,0.171106
0.3875,0.141761
0.38775,0.113199
0.388,0.0788754
0.38825,0.0568021
0.3885,0.0279485
0.38875,0.0134796
0.389,-0.0128062
0.38925,-0.0225362
0.3895,-0.0409162
0.38975,-0.0485678
0.39,-0.0460656
0.39025,-0.0458153
0.3905,-0.0499059
0.39075,-0.0428653
0.391,-0.0362776
0.39125,-0.0250402
0.3915,-0.0116823
0.39175,0.000533905
0.392,0.0139924
0.39225,0.0318088
0.3925,0.0395446
0.39275,0.0560516
0.393,0.0572618
0.39325,0.0712817
0.3935,0.0701477
0.39375,0.072193
0.394,0.0646859
0.39425,0.0623412
0.3945,0.0577958
0.39475,0.0495735
0.395,0.0334752
0.39525,0.0210883
0.3955,0.0062893
0.39575,-0.0105963
0.396,-0.0245934
0.39625,-0.0383603
0.3965,-0.0477491
0.39675,-0.0623121
0.397,-0.0673668
0.39725,-0.0773556
0.3975,-0.0784576
0.39775,-0.0693051
0.398,-0.0686805
0.39825,-0.0556074
0.3985,-0.0411945
0.39875,-0.0289706
0.399,-0.00562783
0.39925,0.0182834
0.3995,0.042972
0.39975,0.0717933
0.4,0.0931651
0.40025,0.120422
0.4005,0.156203
0.40075,0.180874
0.401,0.20187
0.40125,0.224543
0.4015,0.24123
0.40175,0.250872
0.402,0.261245
0.40225,0.269643
0.4025,0.267699
0.40275,0.275297
0.403,0.266924
0.40325,0.260782
0.4035,0.244469
0.40375,0.235808
0.404,0.225195
0.40425,0.206015
0.4045,0.188549
0.40475,0.175164
0.405,0.162733
0.40525,0.146745
0.4055,0.13542
0.40575,0.13104
0.406,0.129311
0.40625,0.127321
0.4065,0.125459
0.40675,0.126205
0.407,0.128272
0.40725,0.145871
0.4075,0.154291
0.40775,0.168516
0.408,0.176083
0.40825,0.189249
0.4085,0.206328
0.40875,0.216269
0.409,0.224569
0.40925,0.229557
0.4095,0.241973
0.40975,0.245946
0.41,0.23796
0.41025,0.23154
0.4105,0.231402
0.41075,0.210351
0.411,0.196551
0.41125,0.182871
0.4115,0.153447
0.41175,0.133826
0.412,0.103071
0.41225,0.0812523
0.4125,0.0503502
0.41275,0.0193353
0.413,-0.00597132
0.41325,-0.0390131
0.4135,-0.0584165
0.41375,-0.0874016
0.414,-0.104447
0.41425,-0.119494
0.4145,-0.132613
0.41475,-0.138903
0.415,-0.150185
0.41525,-0.151329
0.4155,-0.142718
0.41575,-0.136509
0.416,-0.129087
0.41625,-0.125211
0.4165,-0.107288
0.41675,-0.0936292
0.417,-0.0788834
0.41725,-0.0651095
0.4175,-0.0598169
0.41775,-0.0492879
0.418,-0.0355509
0.41825,-0.0360729
0.4185,-0.0258726
0.41875,-0.0268491
0.419,-0.0352536
0.41925,-0.0409997
0.4195,-0.0426415
0.41975,-0.0532495
0.42,-0.0651371
0.42025,-0.0799541
0.4205,-0.0996517
0.42075,-0.111992
0.421,-0.126912
0.42125,-0.139179
0.4215,-0.149142
0.42175,-0.164286
0.422,-0.174717
0.42225,-0.174369
0.4225,-0.173877
0.42275,-0.168572
0.423,-0.163267
0.42325,-0.158949
0.4235,-0.145445
0.42375,-0.127848
0.424,-0.0996508
0.42425,-0.0815098
0.4245,-0.0576007
0.42475,-0.02487
0.425,-0.00491917
0.42525,0.0222562
0.4255,0.0484131
0.42575,0.0802794
0.426,0.0978877
0.42625,0.1218
0.4265,0.138454
0.42675,0.156596
0.427,0.164152
0.42725,0.173082
0.4275,0.175396
0.42775,0.166474
0.428,0.171114
0.42825,0.161852
0.4285,0.14475
0.42875,0.137074
0.429,0.118281
0.42925,0.110422
0.4295,0.0915163
0.42975,0.0750965
0.43,0.069132
0.43025,0.0569384
0.4305,0.0460344
0.43075,0.0305478
0.431,0.0309524
0.43125,0.0255058
0.4315,0.0299894
0.43175,0.0257527
0.432,0.036383
0.43225,0.0458894
0.4325,0.0514542
0.43275,0.0650787
0.433,0.0850185
0.43325,0.097905
0.4335,0.103678
0.43375,0.122578
0.434,0.132765
0.43425,0.143431
0.4345,0.145968
0.43475,0.153748
0.435,0.150921
0.43525,0.144278
0.4355,0.13601
0.43575,0.126978
0.436,0.104183
0.43625,0.087254
0.4365,0.0664012
0.43675,0.0402348
0.437,0.0127559
0.43725,-0.00808987
0.4375,-0.0434151
0.43775,-0.0692618
0.438,-0.0970777
0.43825,-0.121746
0.4385,-0.15068
0.43875,-0.172113
0.439,-0.189472
0.43925,-0.202387
0.4395,-0.220526
0.43975,-0.226089
0.44,-0.228474
0.44025,-0.232572
0.4405,-0.229875
0.44075,-0.226779
0.441,-0.216325
0.44125,-0.200948
0.4415,-0.189907
0.44175,-0.174657
0.442,-0.164364
0.44225,-0.146368
0.4425,-0.133622
0.44275,-0.131124
0.443,-0.112817
0.44325,-0.108215
0.4435,-0.111308
0.44375,-0.108969
0.444,-0.10531
0.44425,-0.113736
0.4445,-0.116424
0.44475,-0.125605
0.445,-0.141623
0.44525,-0.155232
0.4455,-0.168353
0.44575,-0.18965
0.446,-0.200205
0.44625,-0.210201
0.4465,-0.229137
0.44675,-0.236527
0.447,-0.244233
0.44725,-0.246444
0.4475,-0.247691
0.44775,-0.24508
0.448,-0.237136
0.44825,-0.229153
0.4485,-0.207831
0.44875,-0.196641
0.449,-0.171841
0.44925,-0.144322
0.4495,-0.119559
0.44975,-0.0947865
0.45,-0.0659281
0.45025,-0.0418406
0.4505,-0.0122248
0.45075,0.0184543
0.451,0.0348306
0.45125,0.0600464
0.4515,0.0815291
0.45175,0.0941955
0.452,0.108207
0.45225,0.112255
0.4525,0.114653
0.45275,0.113042
0.453,0.109866
0.45325,0.102715
0.4535,0.0915925
0.45375,0.0851373
0.454,0.0651379
0.45425,0.0584645
0.4545,0.0394378
0.45475,0.0234815
0.455,0.0104926
0.45525,-0.001107
0.4555,-0.00682483
0.45575,-0.0116005
0.456,-0.0187217
0.45625,-0.0207304
0.4565,-0.018001
0.45675,-0.0208841
0.457,-0.00567362
0.45725,0.00285613
0.4575,0.00854889
0.45775,0.0247768
0.458,0.0334456
0.45825,0.0526312
0.4585,0.0608961
0.45875,0.0824453
0.459,0.0851964
0.45925,0.0992721
0.4595,0.103937
0.45975,0.112832
0.46,0.107346
0.46025,0.107508
0.4605,0.095593
0.46075,0.0906108
0.461,0.0692187
0.46125,0.0554244
0.4615,0.030721
0.46175,0.00389973
0.462,-0.0204178
0.46225,-0.0422456
0.4625,-0.075728
0.46275,-0.100647
0.463,-0.134549
0.46325,-0.156591
0.4635,-0.182734
0.46375,-0.204452
0.464,-0.215419
0.46425,-0.237748
0.4645,-0.250477
0.46475,-0.256411
0.465,-0.256081
0.46525,-0.256593
0.4655,-0.258535
0.46575,-0.247127
0.466,-0.236186
0.46625,-0.226585
0.4665,-0.213978
0.46675,-0.200151
0.467,-0.182818
0.46725,-0.169343
0.4675,-0.154973
0.46775,-0.148775
0.468,-0.135537
0.46825,-0.130351
0.4685,-0.125878
0.46875,-0.124698
0.469,-0.121896
0.46925,-0.131865
0.4695,-0.136232
0.46975,-0.146965
0.47,-0.15536
0.47025,-0.172138
0.4705,-0.178467
0.47075,-0.197036
0.471,-0.213544
0.47125,-0.223444
0.4715,-0.236185
0.47175,-0.240002
0.472,-0.252962
0.47225,-0.254304
0.4725,-0.253587
0.47275,-0.246765
0.473,-0.240685
0.47325,-0.227107
0.4735,-0.214336
0.47375,-0.19443
0.474,-0.172199
0.47425,-0.152799
0.4745,-0.126302
0.47475,-0.097074
0.475,-0.064544
0.47525,-0.0349069
0.4755,-0.0125676
0.47575,0.014719
0.476,0.0378821
0.47625,0.062655
0.4765,0.0786084
0.47675,0.0963741
0.477,0.103987
0.47725,0.111842
0.4775,0.117942
0.47775,0.115727
0.478,0.118762
0.47825,0.107248
0.4785,0.104142
0.47875,0.0925387
0.479,0.0774477
0.47925,0.0588301
0.4795,0.0503906
0.47975,0.0308362
0.48,0.0217599
0.48025,0.0115081
0.4805,-0.00061334
0.48075,0.000269911
0.481,-0.0119932
0.48125,-0.0043802
0.4815,-0.00564498
0.48175,0.00151075
0.482,0.00379215
0.48225,0.0123653
0.4825,0.031048
0.48275,0.0379146
0.483,0.0525365
0.48325,0.0689604
0.4835,0.0798528
0.48375,0.100294
0.484,0.106466
0.48425,0.115715
0.4845,0.12572
0.48475,0.127894
0.485,0.127232
0.48525,0.125473
0.4855,0.119809
0.48575,0.111303
0.486,0.0947067
0.48625,0.0752716
0.4865,0.0507164
0.48675,0.0360298
0.487,0.00991519
0.48725,-0.0200359
0.4875,-0.0464909
0.48775,-0.0759209
0.488,-0.105508
0.48825,-0.131392
0.4885,-0.148064
0.48875,-0.175573
0.489,-0.195882
0.48925,-0.209059
0.4895,-0.215158
0.48975,-0.219786
0.49,-0.222825
0.49025,-0.224548
0.4905,-0.219937
0.49075,-0.215057
0.491,-0.204593
0.49125,-0.195023
0.4915,-0.177163
0.49175,-0.16109
0.492,-0.151476
0.49225,-0.138552
0.4925,-0.123554
0.49275,-0.11286
0.493,-0.102803
0.49325,-0.091532
0.4935,-0.0927554
0.49375,-0.085685
0.494,-0.0891166
0.49425,-0.0902496
0.4945,-0.100276
0.49475,-0.107457
0.495,-0.121066
0.49525,-0.134506
0.4955,-0.143034
0.49575,-0.161481
0.496,-0.167845
0.49625,-0.188069
0.4965,-0.192277
0.49675,-0.208931
0.497,-0.205994
0.49725,-0.211652
0.4975,-0.208532
0.49775,-0.206869
0.498,-0.203935
0.49825,-0.190493
0.4985,-0.169926
0.49875,-0.15546
0.499,-0.134932
0.49925,-0.106014
0.4995,-0.0835036
0.49975,-0.0547423
0.5,-0.0259612
0.50025,0.00652268
0.5005,0.029225
0.50075,0.0547117
0.501,0.082249
0.50125,0.107985
0.5015,0.128186
0.50175,0.1435
0.502,0.156117
0.50225,0.156543
0.5025,0.166027
0.50275,0.161634
0.503,0.160344
0.50325,0.156298
0.5035,0.143773
0.50375,0.132526
0.504,0.127377
0.50425,0.112311
0.5045,0.0904617
0.50475,0.081982
0.505,0.0648339
0.50525,0.0569426
0.5055,0.0485956
0.50575,0.0380008
0.506,0.0420809
0.50625,0.0368149
0.5065,0.0432542
0.50675,0.0400156
0.507,0.0523428
0.50725,0.0614028
0.5075,0.0715104
0.50775,0.0891666
0.508,0.101444
0.50825,0.11471
0.5085,0.13357
0.50875,1.47E-01
0.509,0.15612
0.50925,0.171115
0.5095,0.178015
0.50975,0.182775
0.51,0.179623
0.51025,0.171406
0.5105,0.163341
0.51075,0.161673
0.511,0.139827
0.51125,0.120231
0.5115,0.107589
0.51175,0.0805403
0.512,0.0576757
0.51225,0.0316261
0.5125,-0.0017355
0.51275,-0.0254961
0.513,-0.0552057
0.51325,-0.0779618
0.5135,-0.100986
0.51375,-0.123569
0.514,-0.143069
0.51425,-0.161378
0.5145,-0.17343
0.51475,-0.172618
0.515,-0.174023
0.51525,-0.18315
0.5155,-1.72E-01
0.51575,-0.16563
0.516,-0.160281
0.51625,-0.145153
0.5165,-0.134785
0.51675,-0.117398
0.517,-0.100282
0.51725,-0.0909186
0.5175,-0.0784093
0.51775,-0.0603567
0.518,-0.0501093
0.51825,-0.0482699
0.5185,-0.0442455
0.51875,-0.0420774
0.519,-0.0380048
0.51925,-0.0416106
0.5195,-0.0544554
0.51975,-0.0583982
0.52,-0.066795
0.52025,-0.0837376
0.5205,-0.0957421
0.52075,-0.110121
0.521,-0.123189
0.52125,-0.132865
0.5215,-0.150499
0.52175,-0.155214
0.522,-0.162128
0.52225,-0.170445
0.5225,-0.168119
0.52275,-0.163525
0.523,-0.157205
0.52325,-0.145107
0.5235,-0.125276
0.52375,-0.107009
0.524,-0.0889221
0.52425,-0.0595618
0.5245,-0.0349332
0.52475,-0.00603216
0.525,0.0190605
0.52525,0.0487106
0.5255,0.0755006
0.52575,0.100845
0.526,0.131064
0.52625,0.153353
0.5265,0.162812
0.52675,0.182346
0.527,0.194537
0.52725,0.200136
0.5275,0.204525
0.52775,0.203592
0.528,0.201157
0.52825,0.200543
0.5285,0.186858
0.52875,0.176166
0.529,0.169217
0.52925,0.153449
0.5295,0.136936
0.52975,0.124186
0.53,0.107996
0.53025,0.097503
0.5305,0.0939445
0.53075,0.0857947
0.531,0.0764461
0.53125,0.0814677
0.5315,0.0746316
0.53175,0.0829311
0.532,0.0886283
0.53225,0.0970257
0.5325,0.114208
0.53275,0.127227
0.533,0.138118
0.53325,0.153204
0.5335,0.169881
0.53375,0.181929
0.534,0.193473
0.53425,0.202338
0.5345,0.205577
0.53475,0.215484
0.535,0.211504
0.53525,0.215935
0.5355,0.201138
0.53575,0.18823
0.536,0.179074
0.53625,0.155786
0.5365,0.141723
0.53675,0.116605
0.537,0.0889132
0.53725,0.0639182
0.5375,0.036202
0.53775,0.00956877
0.538,-0.0239717
0.53825,-0.0458175
0.5385,-0.0681866
0.53875,-0.0893053
0.539,-0.115352
0.53925,-0.126147
0.5395,-0.132572
0.53975,-0.147918
0.54,-0.145414
0.54025,-0.145609
0.5405,-0.146416
0.54075,-0.135054
0.541,-0.129772
0.54125,-0.116513
0.5415,-0.105089
0.54175,-0.0856975
0.542,-0.0790233
0.54225,-0.062296
0.5425,-0.0443861
0.54275,-0.0373747
0.543,-0.0262767
0.54325,-0.0213822
0.5435,-0.013608
0.54375,-0.0160198
0.544,-0.0134424
0.54425,-0.01912
0.5445,-0.0308998
0.54475,-0.0359339
0.545,-0.044079
0.54525,-0.0625918
0.5455,-0.0695423
0.54575,-0.0925359
0.546,-0.0975303
0.54625,-0.11881
0.5465,-0.127936
0.54675,-0.132601
0.547,-0.140353
0.54725,-0.147391
0.5475,-0.150412
0.54775,-0.139412
0.548,-0.130344
0.54825,-0.126164
0.5485,-0.108953
0.54875,-0.0867194
0.549,-0.0704883
0.54925,-0.0394702
0.5495,-0.0190707
0.54975,0.00640648
0.55,0.0426589
0.55025,0.0701062
0.5505,0.0941823
0.55075,0.119303
0.551,0.139305
0.55125,0.167114
0.5515,0.181684
0.55175,0.198925
0.552,0.2064
0.55225,0.21767
0.5525,0.222618
0.55275,0.221266
0.553,0.215143
0.55325,0.210043
0.5535,0.202378
0.55375,0.192399
0.554,0.177247
0.55425,0.161149
0.5545,0.150931
0.55475,0.134293
0.555,0.117779
0.55525,0.108791
0.5555,0.098045
0.55575,0.0890376
0.556,0.0858955
0.55625,0.0848473
0.5565,0.0940255
0.55675,0.0890102
0.557,0.103875
0.55725,0.107378
0.5575,0.119334
0.55775,0.130159
0.558,0.149602
0.55825,0.159461
0.5585,0.174237
0.55875,0.192271
0.559,0.204017
0.55925,0.213383
0.5595,0.219892
0.55975,0.218806
0.56,0.222871
0.56025,0.212811
0.5605,0.203934
0.56075,0.200891
0.561,0.186158
0.56125,0.16412
0.5615,0.145154
0.56175,0.118284
0.562,0.0878725
0.56225,0.0691732
0.5625,0.0344955
0.56275,0.0105972
0.563,-0.0175301
0.56325,-0.0481684
0.5635,-0.0728151
0.56375,-0.0933909
0.564,-0.111702
0.56425,-0.124586
0.5645,-0.137424
0.56475,-0.1416
0.565,-0.150247
0.56525,-0.148806
0.5655,-0.140399
0.56575,-0.138978
0.566,-0.125878
0.56625,-0.114551
0.5665,-0.102511
0.56675,-0.0870356
0.567,-0.0790098
0.56725,-0.0606057
0.5675,-0.050776
0.56775,-0.0365209
0.568,-0.028183
0.56825,-0.0230256
0.5685,-0.0162154
0.56875,-0.0143998
0.569,-0.0195183
0.56925,-0.0281512
0.5695,-0.0296267
0.56975,-0.0418579
0.57,-0.0564034
0.57025,-0.0679116
0.5705,-0.0779376
0.57075,-0.0970376
0.571,-0.110189
0.57125,-0.119342
0.5715,-0.13466
0.57175,-0.14283
0.572,-0.15337
0.57225,-0.155336
0.5725,-0.152813
0.57275,-0.148222
0.573,-0.142562
0.57325,-0.134779
0.5735,-0.112333
0.57375,-0.0928193
0.574,-0.0752037
0.57425,-0.0563947
0.5745,-0.0216992
0.57475,-0.00381497
0.575,0.0307753
0.57525,0.055282
0.5755,0.0841681
0.57575,0.106323
0.576,0.137152
0.57625,0.154415
0.5765,0.168657
0.57675,0.191837
0.577,0.200184
0.57725,0.211205
0.5775,0.210767
0.57775,0.212833
0.578,0.209087
0.57825,0.196051
0.5785,0.185928
0.57875,0.177939
0.579,0.164597
0.57925,0.152495
0.5795,0.136879
0.57975,0.122926
0.58,0.107103
0.58025,0.0956803
0.5805,0.0909461
0.58075,0.0828268
0.581,0.0782537
0.58125,0.0767623
0.5815,0.0722062
0.58175,0.0793212
0.582,0.0857339
0.58225,0.0917009
0.5825,0.110966
0.58275,0.120799
0.583,0.131511
0.58325,0.15133
0.5835,0.158136
0.58375,0.171244
0.584,0.184219
0.58425,0.197984
0.5845,0.204365
0.58475,0.201357
0.585,0.206001
0.58525,0.197623
0.5855,0.191726
0.58575,0.181392
0.586,0.166804
0.58625,0.142237
0.5865,0.127502
0.58675,0.104233
0.587,0.0709572
0.58725,0.0517117
0.5875,0.0171201
0.58775,-0.0115514
0.588,-0.0338425
0.58825,-0.0648641
0.5885,-0.0830706
0.58875,-0.107359
0.589,-0.129309
0.58925,-0.143064
0.5895,-0.156849
0.58975,-0.158858
0.59,-0.162166
0.59025,-0.168219
0.5905,-0.160642
0.59075,-0.161472
0.591,-0.151253
0.59125,-0.135961
0.5915,-0.125405
0.59175,-0.105829
0.592,-0.100798
0.59225,-0.0775624
0.5925,-0.0646101
0.59275,-0.0541116
0.593,-0.0515806
0.59325,-0.0390485
0.5935,-0.0355508
0.59375,-0.0334095
0.594,-0.0409609
0.59425,-0.0438377
0.5945,-0.0511255
0.59475,-0.0603688
0.595,-0.0753266
0.59525,-0.0831566
0.5955,-0.10147
0.59575,-0.11192
0.596,-0.122996
0.59625,-0.138834
0.5965,-0.152572
0.59675,-0.164182
0.597,-0.164798
0.59725,-0.170177
0.5975,-0.175493
0.59775,-0.167942
0.598,-0.166229
0.59825,-0.149294
0.5985,-0.137915
0.59875,-0.120771
0.599,-0.0918293
0.59925,-0.0687886
0.5995,-0.0502866
0.59975,-0.0185708
0.6,0.0132015
0.60025,0.0367126
0.6005,0.0666869
0.60075,0.087032
0.601,0.117361
0.60125,0.13265
0.6015,0.151857
0.60175,0.169258
0.602,0.182449
0.60225,0.188796
0.6025,0.194666
0.60275,0.192545
0.603,0.184039
0.60325,0.18277
0.6035,0.167427
0.60375,0.153515
0.604,0.146054
0.60425,0.127441
0.6045,0.11537
0.60475,0.10297
0.605,0.0896459
0.60525,0.074846
0.6055,0.0639113
0.60575,0.0556431
0.606,0.0578444
0.60625,0.0536498
0.6065,0.0512893
0.60675,6.33E-02
0.607,0.0695395
0.60725,0.0710035
0.6075,0.0830096
0.60775,0.0979389
0.608,0.111561
0.60825,0.125578
0.6085,0.145353
0.60875,0.153251
0.609,0.166944
0.60925,0.17517
0.6095,0.17795
0.60975,0.187327
0.61,0.18796
0.61025,0.1843
0.6105,0.174381
0.61075,0.164131
0.611,0.147391
0.61125,0.124934
0.6115,0.108978
0.61175,0.079805
0.612,0.0547381
0.61225,0.0314528
0.6125,0.00104546
0.61275,-0.0258697
0.613,-0.0544294
0.61325,-0.0799294
0.6135,-0.106127
0.61375,-0.130058
0.614,-0.145433
0.61425,-0.16371
0.6145,-0.168502
0.61475,-0.182903
0.615,-0.185862
0.61525,-0.186976
0.6155,-0.176934
0.61575,-0.169562
0.616,-0.161646
0.61625,-0.15799
0.6165,-0.145656
0.61675,-0.13142
0.617,-0.113134
0.61725,-0.0970918
0.6175,-0.0817456
0.61775,-0.0746859
0.618,-0.0648934
0.61825,-0.0543591
0.6185,-0.050632
0.61875,-0.0559019
0.619,-0.0536971
0.61925,-0.0630646
0.6195,-0.0673235
0.61975,-0.0720558
0.62,-0.0856237
0.62025,-0.100822
0.6205,-0.10975
0.62075,-0.130273
0.621,-0.14725
0.62125,-0.154405
0.6215,-0.169407
0.62175,-0.173425
0.622,-0.185919
0.62225,-0.189253
0.6225,-0.185014
0.62275,-0.181398
0.623,-0.171886
0.62325,-0.166908
0.6235,-0.145654
0.62375,-0.129858
0.624,-0.111553
0.62425,-0.0833628
0.6245,-0.0573762
0.62475,-0.03054
0.625,-0.00203547
0.62525,0.0269795
0.6255,0.0551383
0.62575,0.074354
0.626,0.0977946
0.62625,0.125077
0.6265,0.137311
0.62675,0.160456
0.627,0.168675
0.62725,0.170267
0.6275,0.182448
0.62775,0.182657
0.628,0.175671
0.62825,0.163149
0.6285,0.158111
0.62875,0.143334
0.629,0.132766
0.62925,0.119822
0.6295,0.109169
0.62975,0.0882422
0.63,0.0821321
0.63025,0.0697443
0.6305,0.0554184
0.63075,0.0495688
0.631,0.0488312
0.63125,0.0478892
0.6315,0.0440518
0.63175,0.0545272
0.632,0.0531005
0.63225,0.0677706
0.6325,0.0800521
0.63275,0.0876401
0.633,0.101359
0.63325,0.119719
0.6335,0.133603
0.63375,0.141048
0.634,0.157228
0.63425,0.162897
0.6345,0.175029
0.63475,0.176626
0.635,0.180301
0.63525,0.175064
0.6355,0.163046
0.63575,0.153372
0.636,0.142386
0.63625,0.121965
0.6365,0.0974158
0.63675,0.0728016
0.637,0.0474438
0.63725,0.0170745
0.6375,-0.00371303
0.63775,-0.0375878
0.638,-0.0631242
0.63825,-0.090632
0.6385,-0.109567
0.63875,-0.129132
0.639,-0.153224
0.63925,-0.169401
0.6395,-0.177202
0.63975,-0.183787
0.64,-0.193974
0.64025,-0.186934
0.6405,-0.182387
0.64075,-0.175375
0.641,-0.173788
0.64125,-0.163596
0.6415,-0.149766
0.64175,-0.130659
0.642,-0.116241
0.64225,-0.10088
0.6425,-0.0915794
0.64275,-0.0742552
0.643,-0.0716083
0.64325,-0.0645103
0.6435,-0.058693
0.64375,-0.0586983
0.644,-0.0548339
0.64425,-0.0606945
0.6445,-0.0668934
0.64475,-0.0835771
0.645,-0.091188
0.64525,-0.0984204
0.6455,-0.120575
0.64575,-0.130358
0.646,-0.141129
0.64625,-0.16274
0.6465,-0.166082
0.64675,-0.178586
0.647,-0.182866
0.64725,-0.191153
0.6475,-0.185203
0.64775,-0.188109
0.648,-0.18146
0.64825,-0.170341
0.6485,-0.150062
0.64875,-0.136631
0.649,-0.106665
0.64925,-0.091186
0.6495,-0.0567155
0.64975,-0.0335324
0.65,-0.00919053
0.65025,0.0272819
0.6505,0.0509169
0.65075,0.0733702
0.651,0.095813
0.65125,0.126061
0.6515,0.145164
0.65175,0.154686
0.652,0.171259
0.65225,0.174274
0.6525,0.177811
0.65275,0.178653
0.653,0.176674
0.65325,0.165087
0.6535,0.155885
0.65375,0.142682
0.654,0.137906
0.65425,0.118093
0.6545,0.108308
0.65475,0.0968112
0.655,0.0829627
0.65525,0.0715131
0.6555,0.0537976
0.65575,0.0536713
0.656,0.0461789
0.65625,0.0410446
0.6565,0.0462093
0.65675,0.0560545
0.657,0.0587971
0.65725,0.0706402
0.6575,0.0815237
0.65775,0.0912133
0.658,0.103608
0.65825,0.123966
0.6585,0.138202
0.65875,0.147891
0.659,0.162143
0.65925,0.166663
0.6595,0.177115
0.65975,0.17709
0.66,0.177858
0.66025,0.172923
0.6605,0.172947
0.66075,0.157156
0.661,0.144603
0.66125,0.122507
0.6615,0.100043
0.66175,0.0834136
0.662,0.0488882
0.66225,0.0232757
0.6625,-0.00357587
0.66275,-0.0275345
0.663,-0.0576957
0.66325,-0.0798806
0.6635,-0.10533
0.66375,-0.129231
0.664,-0.149549
0.66425,-0.16497
0.6645,-0.170046
0.66475,-0.178058
0.665,-0.189218
0.66525,-0.183888
0.6655,-0.182962
0.66575,-0.176457
0.666,-0.163261
0.66625,-0.154388
0.6665,-0.14377
0.66675,-0.126261
0.667,-0.107862
0.66725,-0.0959308
0.6675,-0.083534
0.66775,-0.0744779
0.668,-0.060532
0.66825,-0.054508
0.6685,-0.0526244
0.66875,-0.0525847
0.669,-0.0479531
0.66925,-0.0561409
0.6695,-0.0628078
0.66975,-0.0741559
0.67,-0.0859871
0.67025,-0.0957166
0.6705,-0.114023
0.67075,-0.126101
0.671,-0.141613
0.67125,-0.156882
0.6715,-0.162667
0.67175,-0.170522
0.672,-0.175838
0.67225,-0.183981
0.6725,-0.186082
0.67275,-0.177756
0.673,-0.175785
0.67325,-0.160204
0.6735,-0.143997
0.67375,-0.127923
0.674,-0.108101
0.67425,-0.0776548
0.6745,-0.0522358
0.67475,-0.030454
0.675,-0.00440888
0.67525,0.0335751
0.6755,0.058291
0.67575,0.0855334
0.676,0.108721
0.67625,0.128384
0.6765,0.146539
0.67675,0.162035
0.677,0.168443
0.67725,0.184605
0.6775,0.181009
0.67775,0.18017
0.678,0.177141
0.67825,0.172636
0.6785,0.163399
0.67875,0.151425
0.679,0.14285
0.67925,0.127597
0.6795,0.110852
0.67975,0.0945421
0.68,0.0816329
0.68025,0.0793176
0.6805,0.0618556
0.68075,0.0592014
0.681,0.0504526
0.68125,0.0501636
0.6815,0.055699
0.68175,0.0576293
0.682,0.0619246
0.68225,0.0708739
0.6825,0.0879716
0.68275,0.0963623
0.683,0.118014
0.68325,0.128727
0.6835,0.140618
0.68375,0.154651
0.684,0.16286
0.68425,0.17742
0.6845,0.17892
0.68475,0.185188
0.685,0.188574
0.68525,0.182145
0.6855,0.178273
0.68575,0.166639
0.686,0.152579
0.68625,0.12971
0.6865,0.112975
0.68675,0.0902259
0.687,0.0580696
0.68725,0.0361203
0.6875,0.00371866
0.68775,-0.0284865
0.688,-0.0487031
0.68825,-0.0770625
0.6885,-0.0990464
0.68875,-0.12174
0.689,-0.143708
0.68925,-0.152365
0.6895,-0.170873
0.68975,-0.178378
0.69,-0.178745
0.69025,-0.176704
0.6905,-0.171367
0.69075,-0.165746
0.691,-0.161211
0.69125,-0.147774
0.6915,-0.130349
0.69175,-0.117153
0.692,-0.101818
0.69225,-0.0927056
0.6925,-0.0821874
0.69275,-0.0696718
0.693,-0.0607421
0.69325,-0.0474394
0.6935,-0.0416955
0.69375,-0.0398085
0.694,-0.0426653
0.69425,-0.0493082
0.6945,-0.0597188
0.69475,-0.0633711
0.695,-0.0750122
0.69525,-0.086632
0.6955,-0.105281
0.69575,-0.114676
0.696,-0.134802
0.69625,-0.147135
0.6965,-0.161685
0.69675,-0.172079
0.697,-0.177582
0.69725,-0.172531
0.6975,-0.17511
0.69775,-0.173911
0.698,-0.165415
0.69825,-0.150944
0.6985,-0.141884
0.69875,-0.118023
0.699,-0.10144
0.69925,-0.0709571
0.6995,-0.0542023
0.69975,-0.0189697
0.7,0.0025077
0.70025,0.035102
0.7005,0.0656252
0.70075,0.0885737
0.701,0.113239
0.70125,0.13499
0.7015,0.152636
0.70175,0.163282
0.702,0.173834
0.70225,0.185804
0.7025,0.191612
0.70275,0.18523
0.703,0.189121
0.70325,0.183143
0.7035,0.166852
0.70375,0.156398
0.704,0.149935
0.70425,0.127203
0.7045,0.116791
0.70475,0.100006
0.705,0.0903998
0.70525,0.0757357
0.7055,0.0693877
0.70575,0.0621283
0.706,0.0596411
0.70625,0.0606468
0.7065,0.0597071
0.70675,0.05977
0.707,0.0752328
0.70725,0.0787906
0.7075,0.0887072
0.70775,0.107609
0.708,0.116506
0.70825,0.131293
0.7085,0.147594
0.70875,0.160693
0.709,0.17278
0.70925,0.18207
0.7095,0.192089
0.70975,0.194078
0.71,0.186479
0.71025,0.191713
0.7105,0.17858
0.71075,0.169239
0.711,0.155843
0.71125,0.138675
0.7115,0.112335
0.71175,0.0908066
0.712,0.0639613
0.71225,0.0351561
0.7125,0.00744302
0.71275,-0.0245999
0.713,-0.0516712
0.71325,-0.0765105
0.7135,-0.102536
0.71375,-0.117698
0.714,-0.137019
0.71425,-0.152018
0.7145,-0.163728
0.71475,-0.166711
0.715,-0.17737
0.71525,-0.172448
0.7155,-0.175356
0.71575,-0.165485
0.716,-0.151762
0.71625,-0.14775
0.7165,-0.132501
0.71675,-0.118325
0.717,-0.107325
0.71725,-0.0837862
0.7175,-0.0729274
0.71775,-0.0604616
0.718,-0.05706
0.71825,-0.0469287
0.7185,-0.0451268
0.71875,-0.0391403
0.719,-0.047917
0.71925,-0.0501623
0.7195,-0.050005
0.71975,-0.0678527
0.72,-0.0722574
0.72025,-0.0927682
0.7205,-0.105147
0.72075,-0.116382
0.721,-0.130681
0.72125,-0.141671
0.7215,-0.157488
0.72175,-0.160933
0.722,-0.173482
0.72225,-0.170633
0.7225,-0.178811
0.72275,-0.169777
0.723,-0.168754
0.72325,-0.15566
0.7235,-0.1414
0.72375,-0.122628
0.724,-0.0943938
0.72425,-0.075443
0.7245,-0.0475892
0.72475,-0.0233201
0.725,0.00334879
0.72525,0.0373835
0.7255,0.059911
0.72575,0.0871746
0.726,0.110178
0.72625,0.136076
0.7265,0.14911
0.72675,0.168779
0.727,0.176347
0.72725,0.18693
0.7275,0.192935
0.72775,0.189083
0.728,0.188181
0.72825,0.184253
0.7285,0.176074
0.72875,0.162117
0.729,0.151648
0.72925,0.129146
0.7295,0.123242
0.72975,0.105342
0.73,0.090155
0.73025,0.0822981
0.7305,0.0742776
0.73075,0.0593825
0.731,0.0599639
0.73125,0.0554189
0.7315,0.063456
0.73175,0.062053
0.732,0.0692714
0.73225,0.0797799
0.7325,0.0917935
0.73275,0.102409
0.733,0.116485
0.73325,0.135184
0.7335,0.144583
0.73375,0.15576
0.734,0.174281
0.73425,0.183161
0.7345,0.184587
0.73475,0.193221
0.735,0.191906
0.73525,0.191955
0.7355,0.176478
0.73575,0.164825
0.736,0.151939
0.73625,0.135292
0.7365,0.115097
0.73675,0.0882649
0.737,0.0588142
0.73725,0.0376078
0.7375,0.00717734
0.73775,-0.0155512
0.738,-0.0441162
0.73825,-0.0783523
0.7385,-0.0934953
0.73875,-0.11696
0.739,-0.141853
0.73925,-0.149188
0.7395,-0.169023
0.73975,-0.169798
0.74,-0.177199
0.74025,-0.179505
0.7405,-0.169961
0.74075,-0.162964
0.741,-0.157262
0.74125,-0.146304
0.7415,-0.133241
0.74175,-0.121629
0.742,-0.101779
0.74225,-0.0882588
0.7425,-0.0771275
0.74275,-0.0692929
0.743,-0.0599639
0.74325,-0.044953
0.7435,-0.0390959
0.74375,-0.0389709
0.744,-0.0444419
0.74425,-0.0467533
0.7445,-0.0574036
0.74475,-0.0645016
0.745,-0.079701
0.74525,-0.0912626
0.7455,-0.103264
0.74575,-0.121292
0.746,-0.13641
0.74625,-0.142847
0.7465,-0.160552
0.74675,-0.166878
0.747,-0.177191
0.74725,-0.171899
0.7475,-0.176749
0.74775,-0.174494
0.748,-0.160277
0.74825,-0.152799
0.7485,-0.1418
0.74875,-0.123628
0.749,-0.10181
0.74925,-0.0727575
0.7495,-0.0489732
0.74975,-0.0165129
0.75,0.00834726
0.75025,0.031994
0.7505,0.0642586
0.75075,0.089337
0.751,0.112381
0.75125,0.138637
0.7515,0.153882
0.75175,0.171709
0.752,0.175095
0.75225,0.184535
0.7525,0.189214
0.75275,0.194914
0.753,0.187838
0.75325,0.183942
0.7535,0.170741
0.75375,0.156078
0.754,0.141004
0.75425,0.129091
0.7545,0.116494
0.75475,0.0985308
0.755,0.0943972
0.75525,0.0835076
0.7555,0.0676154
0.75575,0.0655905
0.756,0.0628969
0.75625,0.0548385
0.7565,0.0574783
0.75675,0.0583135
0.757,0.0724741
0.75725,0.0812534
0.7575,0.0852869
0.75775,0.0988851
0.758,0.120478
0.75825,0.135323
0.7585,0.149358
0.75875,0.161362
0.759,0.166964
0.75925,0.183357
0.7595,0.18108
0.75975,0.185523
0.76,0.185847
0.76025,0.182385
0.7605,0.178591
0.76075,0.162621
0.761,0.155215
0.76125,0.128838
0.7615,0.112038
0.76175,0.085234
0.762,0.0636246
0.76225,0.0311646
0.7625,0.0082422
0.76275,-0.0227115
0.763,-0.0473311
0.76325,-0.0708806
0.7635,-0.0983315
0.76375,-0.123957
0.764,-0.136965
0.76425,-0.150341
0.7645,-0.162055
0.76475,-0.177167
0.765,-0.175888
0.76525,-0.175815
0.7655,-0.17155
0.76575,-0.169996
0.766,-0.161719
0.76625,-0.14992
0.7665,-0.138092
0.76675,-0.121341
0.767,-0.101798
0.76725,-0.0937185
0.7675,-0.0783479
0.76775,-0.0670266
0.768,-0.0548989
0.76825,-0.0525001
0.7685,-0.0478081
0.76875,-0.0487256
0.769,-0.0488238
0.76925,-0.047424
0.7695,-0.0584617
0.76975,-0.0674605
0.77,-0.0753432
0.77025,-0.0936958
0.7705,-0.103338
0.77075,-0.120692
0.771,-0.138609
0.77125,-0.145995
0.7715,-0.161106
0.77175,-0.1719
0.772,-0.172657
0.77225,-0.175019
0.7725,-0.176244
0.77275,-0.174349
0.773,-0.170206
0.77325,-0.155382
0.7735,-0.135643
0.77375,-0.120193
0.774,-0.099321
0.77425,-0.0800005
0.7745,-0.0460669
0.77475,-0.0269482
0.775,0.00250722
0.77525,0.0285888
0.7755,0.0645037
0.77575,0.0824767
0.776,0.108684
0.77625,0.13704
0.7765,0.153675
0.77675,0.164069
0.777,0.174258
0.77725,0.185969
0.7775,0.190912
0.77775,0.184321
0.778,0.183895
0.77825,0.179042
0.7785,0.171085
0.77875,0.162137
0.779,0.146595
0.77925,0.130022
0.7795,0.115242
0.77975,0.104714
0.78,0.0931499
0.78025,0.0777271
0.7805,0.0637672
0.78075,0.0650543
0.781,0.055247
0.78125,0.0544255
0.7815,0.0610052
0.78175,0.0587944
0.782,0.0714087
0.78225,0.0768045
0.7825,0.0854142
0.78275,0.0983815
0.783,0.120277
0.78325,0.129034
0.7835,0.14186
0.78375,0.161781
0.784,0.173221
0.78425,0.176566
0.7845,0.184659
0.78475,0.192433
0.785,0.187586
0.78525,0.179302
0.7855,0.181244
0.78575,0.168951
0.786,0.147707
0.78625,0.131652
0.7865,0.114816
0.78675,0.0845858
0.787,0.0603123
0.78725,0.0291847
0.7875,0.00866586
0.78775,-0.0263236
0.788,-0.0462432
0.78825,-0.0734463
0.7885,-0.100793
0.78875,-0.125417
0.789,-0.138768
0.78925,-0.154261
0.7895,-0.168171
0.78975,-0.170943
0.79,-0.17736
0.79025,-0.181028
0.7905,-0.170592
0.79075,-0.169021
0.791,-0.154334
0.79125,-1.48E-01
0.7915,-0.133856
0.79175,-0.12327
0.792,-0.107044
0.79225,-0.0886267
0.7925,-0.0801499
0.79275,-0.0694557
0.793,-5.36E-02
0.79325,-0.0558627
0.7935,-0.0518492
0.79375,-4.09E-02
0.794,-0.0502538
0.79425,-0.052953
0.7945,-0.0599159
0.79475,-0.0691111
0.795,-0.0824936
0.79525,-0.096781
0.7955,-0.110621
0.79575,-0.125043
0.796,-0.134951
0.79625,-0.145186
0.7965,-0.160703
0.79675,-0.169381
0.797,-0.178177
0.79725,-0.178587
0.7975,-0.174926
0.79775,-0.170331
0.798,-0.170814
0.79825,-0.159312
0.7985,-0.142778
0.79875,-0.125355
0.799,-0.102413
0.79925,-0.0775712
0.7995,-0.0472346
0.79975,-0.0265682
0.8,0.00492583
0.80025,0.0282219
0.8005,0.0593316
0.80075,0.0908295
0.801,0.112981
0.80125,0.127671
0.8015,0.154101
0.80175,0.163913
0.802,0.179918
0.80225,0.182407
0.8025,0.187608
0.80275,0.189097
0.803,0.184028
0.80325,0.181246
0.8035,0.166574
0.80375,0.156665
0.804,0.145373
0.80425,0.124515
0.8045,0.115918
0.80475,0.101498
0.805,0.0841362
0.80525,0.07871
0.8055,0.0703699
0.80575,0.0637931
0.806,0.0513961
0.80625,5.37E-02
0.8065,0.0539713
0.80675,0.0606516
0.807,0.0676865
0.80725,0.0781657
0.8075,0.0834544
0.80775,0.103764
0.808,0.116062
0.80825,0.126118
0.8085,0.144647
0.80875,0.154611
0.809,0.165373
0.80925,0.172816
0.8095,0.183689
0.80975,0.186609
0.81,0.187507
0.81025,0.185365
0.8105,0.175335
0.81075,0.168234
0.811,0.148378
0.81125,0.136145
0.8115,0.106699
0.81175,0.0828655
0.812,0.0557038
0.81225,0.0318106
0.8125,4.99E-05
0.81275,-0.0195846
0.813,-0.0518986
0.81325,-0.0805211
0.8135,-0.100892
0.81375,-0.125314
0.814,-0.139808
0.81425,-0.157156
0.8145,-0.166214
0.81475,-0.17074
0.815,-0.175653
0.81525,-0.178923
0.8155,-0.180124
0.81575,-0.168186
0.816,-0.158732
0.81625,-0.144563
0.8165,-0.135154
0.81675,-0.122928
0.817,-0.105738
0.81725,-0.0934748
0.8175,-0.0818516
0.81775,-0.0718955
0.818,-0.0607645
0.81825,-0.0503021
0.8185,-0.0455001
0.81875,-0.0460963
0.819,-0.0514631
0.81925,-0.0524193
0.8195,-0.0552523
0.81975,-0.0646138
0.82,-0.0784666
0.82025,-0.0973287
0.8205,-0.104775
0.82075,-0.11634
0.821,-0.135638
0.82125,-0.15044
0.8215,-0.158923
0.82175,-0.173327
0.822,-0.1725
0.82225,-0.17841
0.8225,-0.183281
0.82275,-0.174058
0.823,-0.169138
0.82325,-0.160122
0.8235,-0.146024
0.82375,-0.119261
0.824,-0.103339
0.82425,-0.0757869
0.8245,-0.0484164
0.82475,-0.0256587
0.825,0.000756873
0.82525,0.0304158
0.8255,0.0609292
0.82575,0.0874825
0.826,0.110144
0.82625,0.130231
0.8265,0.146919
0.82675,0.163123
0.827,0.180366
0.82725,0.183841
0.8275,0.189806
0.82775,0.188942
0.828,0.180065
0.82825,0.177037
0.8285,0.173254
0.82875,0.154662
0.829,0.139133
0.82925,0.131526
0.8295,0.115995
0.82975,0.100181
0.83,0.0859921
0.83025,0.0742016
0.8305,0.0658481
0.83075,0.0604703
0.831,0.0529593
0.83125,0.0586607
0.8315,0.0569109
0.83175,0.0597554
0.832,0.068517
0.83225,0.0814696
0.8325,0.0925249
0.83275,0.0980177
0.833,0.11492
0.83325,0.128495
0.8335,0.142849
0.83375,0.158174
0.834,0.166772
0.83425,0.173657
0.8345,0.187855
0.83475,0.185558
0.835,0.18543
0.83525,0.188225
0.8355,0.178259
0.83575,0.16304
0.836,0.153983
0.83625,0.132172
0.8365,0.105556
0.83675,0.08497
0.837,0.0636747
0.83725,0.0331285
0.8375,0.00647747
0.83775,-0.0241239
0.838,-0.0522411
0.83825,-0.0758363
0.8385,-0.10154
0.83875,-0.120973
0.839,-0.141905
0.83925,-0.158601
0.8395,-0.169496
0.83975,-0.17686
0.84,-0.183221
0.84025,-0.176517
0.8405,-0.174195
0.84075,-0.163626
0.841,-0.158002
0.84125,-0.148955
0.8415,-0.136039
0.84175,-0.117255
0.842,-0.105318
0.84225,-0.096031
0.8425,-0.0796458
0.84275,-0.0719153
0.843,-0.0599006
0.84325,-0.0514544
0.8435,-0.0460767
0.84375,-0.04633
0.844,-0.042916
0.84425,-0.0522058
0.8445,-0.0546505
0.84475,-0.0646964
0.845,-0.0834123
0.84525,-0.0904761
0.8455,-0.103619
0.84575,-0.121149
0.846,-0.135289
0.84625,-0.144776
0.8465,-0.163692
0.84675,-0.16412
0.847,-0.177
0.84725,-0.181189
0.8475,-0.177001
0.84775,-0.179289
0.848,-0.167521
0.84825,-0.155742
0.8485,-0.139827
0.84875,-0.122169
0.849,-0.104077
0.84925,-0.0727758
0.8495,-0.0459044
0.84975,-0.0263573
0.85,0.00628031
0.85025,0.0292581
0.8505,0.0557099
0.85075,0.0818058
0.851,0.10837
0.85125,0.130829
0.8515,0.154951
0.85175,0.165007
0.852,0.172723
0.85225,0.183145
0.8525,0.186094
0.85275,0.191831
0.853,0.185129
0.85325,0.173951
0.8535,0.172926
0.85375,0.161186
0.854,0.139499
0.85425,0.129324
0.8545,0.119546
0.85475,0.103513
0.855,0.0930641
0.85525,0.0790108
0.8555,0.0691329
0.85575,0.061776
0.856,0.0585644
0.85625,0.0560519
0.8565,0.0543038
0.85675,6.08E-02
0.857,0.0695271
0.85725,0.0729575
0.8575,0.0877484
0.85775,0.0986407
0.858,0.117089
0.85825,0.127596
0.8585,0.147143
0.85875,0.152299
0.859,0.16995
0.85925,0.18061
0.8595,0.181196
0.85975,0.185535
0.86,0.191936
0.86025,0.184258
0.8605,0.17581
0.86075,0.165045
0.861,0.153407
0.86125,0.134497
0.8615,0.113684
0.86175,0.0846526
0.862,0.0589039
0.86225,0.0377769
0.8625,0.00245251
0.86275,-0.025725
0.863,-0.0492005
0.86325,-0.0735802
0.8635,-0.0991996
0.86375,-0.120763
0.864,-0.144739
0.86425,-0.155016
0.8645,-0.168311
0.86475,-0.17259
0.865,-0.182818
0.86525,-0.174976
0.8655,-0.170847
0.86575,-0.165484
0.866,-0.159572
0.86625,-0.151058
0.8665,-0.133463
0.86675,-0.124184
0.867,-0.105172
0.86725,-0.094025
0.8675,-0.0795508
0.86775,-0.0643426
0.868,-0.0568847
0.86825,-0.0476986
0.8685,-0.0498549
0.86875,-0.0479481
0.869,-0.0512924
0.86925,-0.0501501
0.8695,-0.0555734
0.86975,-0.0696226
0.87,-0.0797028
0.87025,-0.0889166
0.8705,-0.110212
0.87075,-0.119484
0.871,-0.1308
0.87125,-0.149293
0.8715,-0.162843
0.87175,-0.164443
0.872,-0.178474
0.87225,-0.176276
0.8725,-0.175304
0.87275,-0.173415
0.873,-0.163877
0.87325,-0.157891
0.8735,-0.141526
0.87375,-0.122699
0.874,-0.101925
0.87425,-0.0798044
0.8745,-0.0519472
0.87475,-0.0244573
0.875,0.00364785
0.87525,0.0333563
0.8755,0.0598985
0.87575,0.0820946
0.876,0.113882
0.87625,0.135664
0.8765,0.151224
0.87675,0.165116
0.877,0.173014
0.87725,0.182377
0.8775,0.187331
0.87775,0.184948
0.878,0.18049
0.87825,0.180229
0.8785,0.168207
0.87875,0.159854
0.879,0.14507
0.87925,0.127098
0.8795,0.115727
0.87975,0.100881
0.88,0.0916679
0.88025,0.0782489
0.8805,0.0695193
0.88075,0.0567752
0.881,0.0547599
0.88125,0.0510554
0.8815,0.0524434
0.88175,0.0614631
0.882,0.0675424
0.88225,0.0765467
0.8825,0.0842666
0.88275,0.106611
0.883,0.11577
0.88325,0.127178
0.8835,0.144403
0.88375,0.152667
0.884,0.171846
0.88425,0.181927
0.8845,0.18598
0.88475,0.185133
0.885,0.189712
0.88525,0.183893
0.8855,0.180919
0.88575,0.169565
0.886,0.152504
0.88625,0.132678
0.8865,0.107243
0.88675,0.0819964
0.887,0.0586335
0.88725,0.0344139
0.8875,0.00677114
0.88775,-0.0210681
0.888,-0.0505975
0.88825,-0.0716516
0.8885,-0.102347
0.88875,-0.118471
0.889,-0.142414
0.88925,-0.158864
0.8895,-0.163843
0.88975,-0.174869
0.89,-0.18048
0.89025,-0.18294
0.8905,-0.17632
0.89075,-0.171325
0.891,-0.155124
0.89125,-0.147607
0.8915,-0.131968
0.89175,-0.121012
0.892,-0.103096
0.89225,-0.094188
0.8925,-0.0817091
0.89275,-0.0690642
0.893,-0.0598152
0.89325,-0.0523106
0.8935,-0.047788
0.89375,-0.043457
0.894,-0.04511
0.89425,-0.0494266
0.8945,-0.061863
0.89475,-0.0641782
0.895,-0.0816789
0.89525,-0.0962933
0.8955,-0.11068
0.89575,-0.115115
0.896,-0.135844
0.89625,-0.151532
0.8965,-0.161164
0.89675,-0.167056
0.897,-0.169722
0.89725,-0.175222
0.8975,-0.17513
0.89775,-0.175781
0.898,-0.162034
0.89825,-0.151248
0.8985,-0.142879
0.89875,-0.120929
0.899,-0.103516
0.89925,-0.0788708
0.8995,-0.0455478
0.89975,-0.0189795
0.9,0.00441893
0.90025,0.0340762
0.9005,0.0622267
0.90075,0.0916777
0.901,0.106072
0.90125,0.13179
0.9015,0.153358
0.90175,0.164635
0.902,0.179469
0.90225,0.188967
0.9025,0.186651
0.90275,0.187787
0.903,0.185888
0.90325,0.175692
0.9035,0.172612
0.90375,0.155689
0.904,0.143268
0.90425,0.131481
0.9045,0.114269
0.90475,0.103146
0.905,0.0934701
0.90525,0.0753824
0.9055,0.0713878
0.90575,0.0636288
0.906,0.0535163
0.90625,0.057241
0.9065,0.0528162
0.90675,0.0624603
0.907,0.064024
0.90725,0.0817488
0.9075,0.0901651
0.90775,0.104051
0.908,0.118373
0.90825,0.131498
0.9085,0.146717
0.90875,0.158339
0.909,0.164195
0.90925,0.174793
0.9095,0.185843
0.90975,0.183871
0.91,0.183263
0.91025,0.183012
0.9105,0.180451
0.91075,0.164571
0.911,0.148205
0.91125,0.131782
0.9115,0.108204
0.91175,0.089625
0.912,0.0645684
0.91225,0.03487
0.9125,0.00483565
0.91275,-0.020881
0.913,-0.0464657
0.91325,-0.0782017
0.9135,-0.0989695
0.91375,-0.126751
0.914,-0.138975
0.91425,-0.156007
0.9145,-0.169256
0.91475,-0.179425
0.915,-0.173477
0.91525,-0.179316
0.9155,-0.175286
0.91575,-0.172413
0.916,-0.158958
0.91625,-0.149255
0.9165,-0.13779
0.91675,-0.118747
0.917,-0.11033
0.91725,-0.0949897
0.9175,-0.0784207
0.91775,-0.0676475
0.918,-0.0590579
0.91825,-0.0547048
0.9185,-0.0468363
0.91875,-0.047476
0.919,-0.051515
0.91925,-0.0463919
0.9195,-0.0547871
0.91975,-0.0666966
0.92,-0.0838065
0.92025,-0.0945645
0.9205,-0.105639
0.92075,-0.120349
0.921,-0.139091
0.92125,-0.15218
0.9215,-0.158548
0.92175,-0.16848
0.922,-0.173564
0.92225,-0.17531
0.9225,-0.178449
0.92275,-0.173619
0.923,-0.163318
0.92325,-0.157923
0.9235,-0.140537
0.92375,-0.119948
0.924,-0.0976745
0.92425,-0.0790376
0.9245,-0.0535525
0.92475,-0.0240113
0.925,0.00729921
0.92525,0.031128
0.9255,0.057298
0.92575,0.083932
0.926,0.11422
0.92625,0.13198
0.9265,0.151774
0.92675,0.16781
0.927,0.175394
0.92725,0.186739
0.9275,0.187244
0.92775,0.187962
0.928,0.183163
0.92825,0.177613
0.9285,0.173222
0.92875,0.1538
0.929,0.139688
0.92925,0.125419
0.9295,0.113172
0.92975,0.100475
0.93,0.0835774
0.93025,0.0737936
0.9305,0.0638911
0.93075,0.0611416
0.931,0.0605333
0.93125,0.0549007
0.9315,0.0562295
0.93175,0.0630641
0.932,0.0716836
0.93225,0.0725353
0.9325,0.0874144
0.93275,0.097163
0.933,0.118758
0.93325,0.130988
0.9335,0.14147
0.93375,0.160745
0.934,0.167342
0.93425,0.176978
0.9345,0.184545
0.93475,0.19104
0.935,0.188682
0.93525,0.183119
0.9355,0.174158
0.93575,0.168078
0.936,0.154386
0.93625,0.136109
0.9365,0.107031
0.93675,0.0830597
0.937,0.058022
0.93725,0.0337294
0.9375,0.00885778
0.93775,-0.026121
0.938,-0.0482089
0.93825,-0.078005
0.9385,-0.0965005
0.93875,-0.121806
0.939,-0.140746
0.93925,-0.15316
0.9395,-0.166942
0.93975,-0.179221
0.94,-0.175438
0.94025,-0.177453
0.9405,-0.178571
0.94075,-0.164473
0.941,-0.16309
0.94125,-0.147249
0.9415,-0.138417
0.94175,-0.116727
0.942,-0.107799
0.94225,-0.0955814
0.9425,-0.0816136
0.94275,-0.0690767
0.943,-0.0618818
0.94325,-0.0540691
0.9435,-0.0436253
0.94375,-0.0429594
0.944,-0.0513557
0.94425,-0.0489741
0.9445,-0.0574381
0.94475,-0.0719694
0.945,-0.0837087
0.94525,-0.0925436
0.9455,-0.105219
0.94575,-0.119075
0.946,-0.138455
0.94625,-0.151096
0.9465,-0.155955
0.94675,-0.170716
0.947,-0.172162
0.94725,-0.176921
0.9475,-0.174545
0.94775,-0.175601
0.948,-0.165422
0.94825,-0.160347
0.9485,-0.13868
0.94875,-0.12377
0.949,-0.101946
0.94925,-0.0759008
0.9495,-0.0479325
0.94975,-0.0213511
0.95,0.00591632
0.95025,0.0351403
0.9505,0.0620164
0.95075,0.08235
0.951,0.109469
0.95125,0.132932
0.9515,0.148577
0.95175,0.163919
0.952,0.17292
0.95225,0.184733
0.9525,0.18421
0.95275,0.183946
0.953,0.180633
0.95325,1.76E-01
0.9535,0.172318
0.95375,0.158435
0.954,0.143524
0.95425,0.134206
0.9545,0.119251
0.95475,0.104547
0.955,0.0856908
0.95525,0.0796359
0.9555,0.0687369
0.95575,0.0636056
0.956,0.0595481
0.95625,0.057695
0.9565,0.0615552
0.95675,0.0653634
0.957,0.0668022
0.95725,0.0782292
0.9575,0.0942786
0.95775,0.102661
0.958,0.116538
0.95825,0.128093
0.9585,0.144525
0.95875,0.157913
0.959,0.166337
0.95925,0.175734
0.9595,0.185045
0.95975,0.188619
0.96,0.186571
0.96025,0.180792
0.9605,0.17605
0.96075,0.167762
0.961,0.155075
0.96125,0.135407
0.9615,0.107327
0.96175,0.0916092
0.962,0.0587689
0.96225,0.0303633
0.9625,0.0100924
0.96275,-0.0208441
0.963,-0.0488502
0.96325,-0.073278
0.9635,-0.102318
0.96375,-0.118875
0.964,-0.134717
0.96425,-0.149202
0.9645,-0.160593
0.96475,-0.173116
0.965,-0.179505
0.96525,-0.180247
0.9655,-1.69E-01
0.96575,-0.165299
0.966,-0.155495
0.96625,-0.144152
0.9665,-0.13059
0.96675,-0.114718
0.967,-0.104894
0.96725,-0.0846726
0.9675,-0.0769218
0.96775,-0.0631053
0.968,-0.059017
0.96825,-0.0491533
0.9685,-0.0436476
0.96875,-0.0454786
0.969,-0.0424419
0.96925,-0.0512174
0.9695,-0.0529919
0.96975,-0.0659551
0.97,-0.0765698
0.97025,-0.0866387
0.9705,-0.105002
0.97075,-0.113378
0.971,-0.130882
0.97125,-0.143569
0.9715,-0.154916
0.97175,-0.165541
0.972,-0.168782
0.97225,-0.172863
0.9725,-0.178843
0.97275,-0.169758
0.973,-0.166702
0.97325,-0.154285
0.9735,-0.140153
0.97375,-0.116655
0.974,-0.0934807
0.97425,-0.0674996
0.9745,-0.0499578
0.97475,-0.0151083
0.975,0.0136443
0.97525,0.041147
0.9755,0.0657969
0.97575,0.0940661
0.976,0.120913
0.97625,0.13498
0.9765,0.151676
0.97675,0.168046
0.977,0.183996
0.97725,0.193093
0.9775,0.191482
0.97775,0.191126
0.978,0.190953
0.97825,0.186492
0.9785,0.173649
0.97875,0.16495
0.979,0.154355
0.97925,0.138402
0.9795,0.121241
0.97975,0.107346
0.98,0.0998643
0.98025,0.0843914
0.9805,0.0749016
0.98075,0.0647494
0.981,0.0615089
0.98125,0.0594891
0.9815,0.0669272
0.98175,0.0712439
0.982,0.0733731
0.98225,0.0836277
0.9825,0.0943378
0.98275,0.111315
0.983,0.129019
0.98325,0.136117
0.9835,0.15771
0.98375,0.169734
0.984,0.177657
0.98425,0.193111
0.9845,0.196657
0.98475,0.198108
0.985,0.196961
0.98525,0.196861
0.9855,0.190576
0.98575,0.180766
0.986,0.162149
0.98625,0.144803
0.9865,0.122216
0.98675,0.0984917
0.987,0.0695157
0.98725,0.0426315
0.9875,0.022726
0.98775,-0.012359
0.988,-0.0367855
0.98825,-0.0620481
0.9885,-0.0878495
0.98875,-0.106081
0.989,-0.122831
0.98925,-0.139844
0.9895,-0.156811
0.98975,-0.16432
0.99,-0.165312
0.99025,-0.16158
0.9905,-0.159916
0.99075,-0.150014
0.991,-0.14232
0.99125,-0.130512
0.9915,-0.117398
0.99175,-0.107051
0.992,-0.091759
0.99225,-0.0777065
0.9925,-0.0618605
0.99275,-0.0456766
0.993,-0.0439871
0.99325,-0.0305935
0.9935,-0.0229085
0.99375,-0.0261429
0.994,-0.0319499
0.99425,-0.0306462
0.9945,-0.0339626
0.99475,-0.0470969
0.995,-0.0605154
0.99525,-6.90E-02
0.9955,-0.0838306
0.99575,-0.102222
0.996,-0.109728
0.99625,-0.123237
0.9965,-0.136458
0.99675,-0.147247
0.997,-0.148992
0.99725,-0.156798
0.9975,-0.157266
0.99775,-0.149162
0.998,-0.138586
0.99825,-0.131618
0.9985,-0.115806
0.99875,-0.0934742
0.999,-0.0800596
0.99925,-0.0469028
0.9995,-0.024455
0.99975,0.00215727
1,0.0323412
1.00025,0.0622777
1.0005,0.0883833
1.00075,0.109518
1.001,0.137862
1.00125,0.160387
1.0015,0.178687
1.00175,0.196007
1.002,0.210106
1.00225,0.210641
1.0025,0.218639
1.00275,0.221374
1.003,0.213292
1.00325,0.210213
1.0035,0.199697
1.00375,0.187832
1.004,0.172342
1.00425,0.166668
1.0045,0.149286
1.00475,0.131743
1.005,0.127401
1.00525,0.116738
1.0055,0.105389
1.00575,0.099429
1.006,0.0881954
1.00625,0.0878035
1.0065,0.0928178
1.00675,0.0989245
1.007,0.105776
1.00725,0.118885
1.0075,0.12781
1.00775,0.139965
1.008,0.151954
1.00825,0.174812
1.0085,0.182224
1.00875,0.194103
1.009,0.215161
1.00925,0.222924
1.0095,0.223562
1.00975,0.232827
1.01,0.229618
1.01025,0.232314
1.0105,0.21835
1.01075,0.20935
1.011,0.201148
1.01125,0.179262
1.0115,0.161599
1.01175,0.131692
1.012,0.105733
1.01225,0.0767937
1.0125,0.0515883
1.01275,0.0245532
1.013,0.00300307
1.01325,-0.0252549
1.0135,-0.0507555
1.01375,-0.0732418
1.014,-0.0902358
1.01425,-0.104181
1.0145,-0.116792
1.01475,-0.116112
1.015,-0.118989
1.01525,-0.121218
1.0155,-0.121117
1.01575,-0.113771
1.016,-0.104459
1.01625,-0.0893937
1.0165,-0.076773
1.01675,-0.0597073
1.017,-0.0468084
1.01725,-0.027917
1.0175,-0.0224594
1.01775,-0.00925533
1.018,-0.000650142
1.01825,0.0135271
1.0185,0.0184087
1.01875,0.0231924
1.019,0.018773
1.01925,0.0103705
1.0195,0.00418781
1.01975,-0.00362708
1.02,-0.0106836
1.02025,-0.0261447
1.0205,-0.0339205
1.02075,-0.0483407
1.021,-0.0615215
1.02125,-0.0745224
1.0215,-0.0897553
1.02175,-0.0918433
1.022,-0.105305
1.02225,-0.108247
1.0225,-0.102995
1.02275,-0.100083
1.023,-0.0944626
1.02325,-0.0765534
1.0235,-0.0642164
1.02375,-0.0445986
1.024,-0.0265033
1.02425,-0.000261715
1.0245,0.029189
1.02475,0.0572456
1.025,0.0883104
1.02525,0.115914
1.0255,0.148641
1.02575,0.17304
1.026,0.197996
1.02625,0.213327
1.0265,0.236264
1.02675,0.25815
1.027,0.268308
1.02725,0.274994
1.0275,0.282453
1.02775,0.276219
1.028,0.276593
1.02825,0.274575
1.0285,0.258447
1.02875,0.248577
1.029,0.236932
1.02925,0.225891
1.0295,0.216793
1.02975,0.194964
1.03,0.184977
1.03025,0.174524
1.0305,0.16755
1.03075,0.157709
1.031,0.163201
1.03125,0.162538
1.0315,0.15764
1.03175,0.166996
1.032,0.171834
1.03225,0.180935
1.0325,0.195524
1.03275,0.21026
1.033,0.230531
1.03325,0.236234
1.0335,0.251522
1.03375,0.274064
1.034,0.287104
1.03425,0.297175
1.0345,0.304027
1.03475,0.307137
1.035,0.310937
1.03525,0.303043
1.0355,0.300277
1.03575,0.282315
1.036,0.277257
1.03625,0.251344
1.0365,0.236261
1.03675,0.208455
1.037,0.184978
1.03725,0.162279
1.0375,0.131484
1.03775,0.107206
1.038,0.0783423
1.03825,0.0587662
1.0385,0.027503
1.03875,0.010916
1.039,-0.00376258
1.03925,-0.0172898
1.0395,-0.0295759
1.03975,-0.0397692
1.04,-0.0416843
1.04025,-0.0402969
1.0405,-0.0376535
1.04075,-0.0215557
1.041,-0.0108959
1.04125,-0.000934603
1.0415,0.00940225
1.04175,0.0268319
1.042,0.0445153
1.04225,0.0562897
1.0425,0.0754261
1.04275,0.0862984
1.043,0.0989388
1.04325,0.106383
1.0435,0.108402
1.04375,0.108536
1.044,0.108818
1.04425,0.112539
1.0445,0.102896
1.04475,0.0949405
1.045,0.0855274
1.04525,0.0707721
1.0455,0.0555574
1.04575,0.0475069
1.046,0.0330867
1.04625,0.0242862
1.0465,0.00962904
1.04675,-0.00151825
1.047,0.00175451
1.04725,-0.00715454
1.0475,-0.00238877
1.04775,-0.00316818
1.048,0.0154075
1.04825,0.0271346
1.0485,0.0437698
1.04875,0.0555528
1.049,0.0798847
1.04925,0.10895
1.0495,0.130423
1.04975,0.161429
1.05,0.193301
1.05025,0.225046
1.0505,0.247851
1.05075,0.281203
1.051,0.300416
1.05125,0.328049
1.0515,0.346699
1.05175,0.365813
1.052,0.377659
1.05225,0.387407
1.0525,0.387308
1.05275,0.387911
1.053,0.392788
1.05325,0.389192
1.0535,0.373898
1.05375,0.367454
1.054,0.359165
1.05425,0.345811
1.0545,0.329896
1.05475,0.317364
1.055,0.302272
1.05525,0.290028
1.0555,0.286675
1.05575,0.285173
1.056,0.275508
1.05625,0.27883
1.0565,0.277627
1.05675,0.291127
1.057,0.296724
1.05725,0.308813
1.0575,0.318925
1.05775,0.334545
1.058,0.351992
1.05825,0.363419
1.0585,0.381234
1.05875,0.396874
1.059,0.411446
1.05925,0.421377
1.0595,0.426936
1.05975,0.43711
1.06,0.434439
1.06025,0.434471
1.0605,0.431267
1.06075,0.413463
1.061,0.399976
1.06125,0.381801
1.0615,0.370835
1.06175,0.343832
1.062,0.31568
1.06225,0.297373
1.0625,0.262766
1.06275,0.242472
1.063,0.216881
1.06325,0.191302
1.0635,0.168563
1.06375,0.143245
1.064,0.127689
1.06425,0.11291
1.0645,0.108955
1.06475,0.102995
1.065,0.0960609
1.06525,0.101793
1.0655,0.107692
1.06575,0.117946
1.066,0.126221
1.06625,0.134882
1.0665,0.155437
1.06675,0.167177
1.067,0.188876
1.06725,0.198282
1.0675,0.218368
1.06775,0.228106
1.068,0.240532
1.06825,0.251819
1.0685,0.254325
1.06875,0.25653
1.069,0.256444
1.06925,0.253472
1.0695,0.255168
1.06975,0.239617
1.07,0.233332
1.07025,0.222938
1.0705,0.212449
1.07075,0.197781
1.071,0.182131
1.07125,0.169059
1.0715,0.15908
1.07175,0.154767
1.072,0.155694
1.07225,0.152806
1.0725,0.154115
1.07275,0.154613
1.073,0.162227
1.07325,0.179217
1.0735,0.199043
1.07375,0.219883
1.074,0.242175
1.07425,0.267909
1.0745,0.290533
1.07475,0.318771
1.075,0.352772
1.07525,0.380004
1.0755,0.406523
1.07575,0.434742
1.076,0.464931
1.07625,0.490779
1.0765,0.512069
1.07675,0.521597
1.077,0.535861
1.07725,0.550489
1.0775,0.548767
1.07775,0.552028
1.078,0.557903
1.07825,0.551115
1.0785,0.536125
1.07875,0.533691
1.079,0.519804
1.07925,0.511749
1.0795,0.492912
1.07975,0.477967
1.08,0.474588
1.08025,0.464364
1.0805,0.459132
1.08075,0.445764
1.081,0.443683
1.08125,0.451489
1.0815,0.452601
1.08175,0.460672
1.082,0.46378
1.08225,0.475239
1.0825,0.490186
1.08275,0.508171
1.083,0.517144
1.08325,0.537206
1.0835,0.547639
1.08375,0.570687
1.084,0.577417
1.08425,0.588866
1.0845,0.595655
1.08475,0.605597
1.085,0.606825
1.08525,0.608929
1.0855,0.601
1.08575,0.587009
1.086,0.576917
1.08625,0.560265
1.0865,0.545747
1.08675,0.514508
1.087,0.497406
1.08725,0.471325
1.0875,0.443313
1.08775,0.420844
1.088,0.385832
1.08825,0.363451
1.0885,0.343265
1.08875,0.322927
1.089,0.31063
1.08925,0.295817
1.0895,0.283223
1.08975,0.280275
1.09,0.278208
1.09025,0.280374
1.0905,0.28526
1.09075,0.29357
1.091,0.299839
1.09125,0.321218
1.0915,0.334615
1.09175,0.351939
1.092,0.361731
1.09225,0.379072
1.0925,0.393341
1.09275,0.410025
1.093,0.419539
1.09325,0.432336
1.0935,0.439319
1.09375,0.440606
1.094,0.434554
1.09425,0.435631
1.0945,0.426765
1.09475,0.420275
1.095,0.414678
1.09525,0.398168
1.0955,0.392965
1.09575,0.376637
1.096,0.366691
1.09625,0.356267
1.0965,0.343297
1.09675,0.335841
1.097,0.329254
1.09725,0.326993
1.0975,0.328892
1.09775,0.334515
1.098,0.346462
1.09825,0.360866
1.0985,0.379105
1.09875,0.39531
1.099,0.422738
1.09925,0.44482
1.0995,0.475021
1.09975,0.500641
1.1,0.536348
1.10025,0.560097
1.1005,0.594171
1.10075,0.616907
1.101,0.646372
1.10125,0.666046
1.1015,0.691079
1.10175,0.702061
1.102,0.716224
1.10225,0.72222
1.1025,0.728504
1.10275,0.729965
1.103,0.733009
1.10325,0.72768
1.1035,0.720433
1.10375,0.712777
1.104,0.699022
1.10425,0.688293
1.1045,0.668745
1.10475,0.66248
1.105,0.653492
1.10525,0.642236
1.1055,0.627165
1.10575,0.622426
1.106,0.619231
1.10625,0.625081
1.1065,0.624041
1.10675,0.627941
1.107,0.637925
1.10725,0.647735
1.1075,0.66454
1.10775,0.675369
1.108,0.700574
1.10825,0.713327
1.1085,0.724172
1.10875,0.740511
1.109,0.752627
1.10925,0.761565
1.1095,0.774821
1.10975,0.774991
1.11,0.778108
1.11025,0.779089
1.1105,0.775207
1.11075,0.758539
1.111,0.747342
1.11125,0.729871
1.1115,0.711928
1.11175,0.693613
1.112,0.665217
1.11225,0.640863
1.1125,0.608887
1.11275,0.584071
1.113,0.554249
1.11325,0.533234
1.1135,0.5079
1.11375,0.491988
1.114,0.476624
1.11425,0.459818
1.1145,0.452652
1.11475,0.447322
1.115,0.444312
1.11525,0.445941
1.1155,0.452151
1.11575,0.451582
1.116,0.465689
1.11625,0.475919
1.1165,0.491791
1.11675,0.50754
1.117,0.526402
1.11725,0.54415
1.1175,0.552926
1.11775,0.571308
1.118,0.575963
1.11825,0.5822
1.1185,0.587782
1.11875,0.594239
1.119,0.596914
1.11925,0.592987
1.1195,0.581068
1.11975,0.581579
1.12,0.567703
1.12025,0.555679
1.1205,0.546246
1.12075,0.52505
1.121,0.511131
1.12125,0.499405
1.1215,0.497531
1.12175,0.488757
1.122,0.477534
1.12225,0.476877
1.1225,0.482084
1.12275,0.486056
1.123,0.492272
1.12325,0.498859
1.1235,0.522603
1.12375,0.54377
1.124,0.56529
1.12425,0.587688
1.1245,0.615849
1.12475,0.644986
1.125,0.670301
1.12525,0.704328
1.1255,0.729797
1.12575,0.759104
1.126,0.780686
1.12625,0.80347
1.1265,0.826401
1.12675,0.83466
1.127,0.846619
1.12725,0.853821
1.1275,0.865704
1.12775,0.867257
1.128,0.857079
1.12825,0.85634
1.1285,0.849072
1.12875,0.838269
1.129,0.82401
1.12925,0.80909
1.1295,0.797329
1.12975,0.784626
1.13,0.769671
1.13025,0.764833
1.1305,0.747536
1.13075,0.749585
1.131,0.739632
1.13125,0.744383
1.1315,0.737195
1.13175,0.749831
1.132,0.757228
1.13225,0.768639
1.1325,0.779842
1.13275,0.790433
1.133,0.803695
1.13325,0.823428
1.1335,0.83542
1.13375,0.843179
1.134,0.861953
1.13425,0.865175
1.1345,0.87676
1.13475,0.882274
1.135,0.878682
1.13525,0.875947
1.1355,0.87244
1.13575,0.855004
1.136,0.840214
1.13625,0.823501
1.1365,0.802986
1.13675,0.777862
1.137,0.755975
1.13725,0.72995
1.1375,0.705636
1.13775,0.669976
1.138,0.643467
1.13825,0.624447
1.1385,0.599085
1.13875,0.578227
1.139,0.561121
1.13925,0.543182
1.1395,0.527134
1.13975,0.518292
1.14,0.522542
1.14025,0.521138
1.1405,0.520439
1.14075,0.525257
1.141,0.540766
1.14125,0.547918
1.1415,0.560599
1.14175,0.582246
1.142,0.593428
1.14225,0.602673
1.1425,0.622537
1.14275,0.632118
1.143,0.64339
1.14325,0.644688
1.1435,0.651469
1.14375,0.655675
1.144,0.652446
1.14425,0.643618
1.1445,0.643623
1.14475,0.628001
1.145,0.618961
1.14525,0.606139
1.1455,0.588933
1.14575,0.572146
1.146,0.563262
1.14625,0.551349
1.1465,0.537987
1.14675,0.530359
1.147,0.518295
1.14725,0.515046
1.1475,0.511797
1.14775,0.52232
1.148,0.525858
1.14825,0.539576
1.1485,0.550455
1.14875,0.563883
1.149,0.588753
1.14925,0.613843
1.1495,0.636478
1.14975,0.670561
1.15,0.691831
1.15025,0.72014
1.1505,0.74484
1.15075,0.769183
1.151,0.798969
1.15125,0.820714
1.1515,0.83766
1.15175,0.854156
1.152,0.861056
1.15225,0.869723
1.1525,0.868805
1.15275,0.866803
1.153,0.867876
1.15325,0.858094
1.1535,0.849976
1.15375,0.83263
1.154,0.823439
1.15425,0.807345
1.1545,0.794207
1.15475,0.772463
1.155,0.759837
1.15525,0.751864
1.1555,0.741262
1.15575,0.734923
1.156,0.729337
1.15625,0.725716
1.1565,0.726732
1.15675,0.724693
1.157,0.733353
1.15725,0.739944
1.1575,0.752141
1.15775,0.765838
1.158,0.779945
1.15825,0.788088
1.1585,0.804836
1.15875,0.816255
1.159,0.83124
1.15925,0.838695
1.1595,0.843284
1.15975,0.845686
1.16,0.844657
1.16025,0.8413
1.1605,0.823282
1.16075,0.817615
1.161,0.795186
1.16125,0.780718
1.1615,0.755932
1.16175,0.730584
1.162,0.699952
1.16225,0.672675
1.1625,0.650174
1.16275,0.613239
1.163,0.590167
1.16325,0.560016
1.1635,0.529639
1.16375,0.507061
1.164,0.493866
1.16425,0.47368
1.1645,0.459485
1.16475,0.449372
1.165,0.445892
1.16525,0.441132
1.1655,0.450323
1.16575,0.452401
1.166,0.462859
1.16625,0.472109
1.1665,0.481148
1.16675,0.493483
1.167,0.502137
1.16725,0.521463
1.1675,0.532632
1.16775,0.541546
1.168,0.546701
1.16825,0.553822
1.1685,0.558634
1.16875,0.555292
1.169,0.551927
1.16925,0.54214
1.1695,0.537474
1.16975,0.523786
1.17,0.511584
1.17025,0.50101
1.1705,0.48647
1.17075,0.464644
1.171,0.454613
1.17125,0.43773
1.1715,0.416661
1.17175,0.41125
1.172,0.403635
1.17225,0.392223
1.1725,0.398578
1.17275,0.394988
1.173,0.402068
1.17325,0.411116
1.1735,0.42794
1.17375,0.43807
1.174,0.455986
1.17425,0.485139
1.1745,0.509369
1.17475,0.528262
1.175,0.553735
1.17525,0.577817
1.1755,0.609331
1.17575,0.636826
1.176,0.65034
1.17625,0.671214
1.1765,0.689967
1.17675,0.701642
1.177,0.715506
1.17725,0.713207
1.1775,0.715679
1.17775,0.713689
1.178,0.707414
1.17825,0.69737
1.1785,0.693722
1.17875,0.67981
1.179,0.660939
1.17925,0.643409
1.1795,0.628619
1.17975,0.608646
1.18,0.596452
1.18025,0.585039
1.1805,0.571166
1.18075,0.559935
1.181,0.551465
1.18125,0.553713
1.1815,0.550759
1.18175,0.553955
1.182,0.553387
1.18225,0.562117
1.1825,0.572867
1.18275,0.580164
1.183,0.592095
1.18325,0.606769
1.1835,0.616866
1.18375,0.627395
1.184,0.63919
1.18425,0.641961
1.1845,0.641431
1.18475,0.649673
1.185,0.643287
1.18525,0.639441
1.1855,0.623487
1.18575,0.609321
1.186,0.593648
1.18625,0.571399
1.1865,0.549967
1.18675,0.525357
1.187,0.497481
1.18725,0.459906
1.1875,0.430103
1.18775,0.403531
1.188,0.374533
1.18825,0.346501
1.1885,0.314053
1.18875,0.289597
1.189,0.27102
1.18925,0.252412
1.1895,0.241145
1.18975,0.229818
1.19,0.224765
1.19025,0.218211
1.1905,0.220139
1.19075,0.227105
1.191,0.229572
1.19125,0.238889
1.1915,0.252475
1.19175,0.261802
1.192,0.276611
1.19225,0.280156
1.1925,0.291235
1.19275,0.304117
1.193,0.311284
1.19325,0.309433
1.1935,0.316617
1.19375,0.308145
1.194,0.309668
1.19425,0.304186
1.1945,0.290369
1.19475,0.282312
1.195,0.267534
1.19525,0.247402
1.1955,0.232519
1.19575,0.211895
1.196,0.199099
1.19625,0.182075
1.1965,0.166549
1.19675,0.153652
1.197,0.144691
1.19725,0.133381
1.1975,0.130974
1.19775,0.133427
1.198,0.138229
1.19825,0.149846
1.1985,0.154859
1.19875,0.177121
1.199,0.187825
1.19925,0.210262
1.1995,0.2354
1.19975,0.262864
1.2,0.288921
1.20025,0.314787
1.2005,0.33314
1.20075,0.359293
1.201,0.382893
1.20125,0.400956
1.2015,0.413924
1.20175,0.427877
1.202,0.431431
1.20225,0.439216
1.2025,0.441324
1.20275,0.435425
1.203,0.425486
1.20325,0.423522
1.2035,0.410995
1.20375,0.387734
1.204,0.378101
1.20425,0.359797
1.2045,0.338483
1.20475,0.32141
1.205,0.305239
1.20525,0.294286
1.2055,0.276918
1.20575,0.272604
1.206,0.260567
1.20625,0.260436
1.2065,0.252419
1.20675,0.25544
1.207,0.265891
1.20725,0.270246
1.2075,0.277116
1.20775,0.286023
1.208,0.296945
1.20825,0.302882
1.2085,0.321361
1.20875,0.325861
1.209,0.332374
1.20925,0.340651
1.2095,0.350706
1.20975,0.350569
1.21,0.34855
1.21025,0.332969
1.2105,0.325741
1.21075,0.311594
1.211,0.294719
1.21125,0.267774
1.2115,0.246049
1.21175,0.222216
1.212,0.187364
1.21225,0.161736
1.2125,0.129547
1.21275,0.0963346
1.213,0.0649889
1.21325,0.0400092
1.2135,0.00701955
1.21375,-0.0125758
1.214,-0.0321248
1.21425,-0.0554691
1.2145,-0.0681716
1.21475,-0.0796245
1.215,-0.084739
1.21525,-0.0884537
1.2155,-0.0852469
1.21575,-0.0877942
1.216,-0.0790591
1.21625,-0.0734745
1.2165,-0.0605908
1.21675,-0.0482284
1.217,-0.0399967
1.21725,-0.0297214
1.2175,-0.0173942
1.21775,-0.00716229
1.218,-0.00552522
1.21825,0.00260697
1.2185,0.00199298
1.21875,-0.00102255
1.219,0.000977172
1.21925,-0.00773358
1.2195,-0.0181229
1.21975,-0.0288394
1.22,-0.0519724
1.22025,-0.0636731
1.2205,-0.0841345
1.22075,-0.0959961
1.221,-0.11074
1.22125,-0.129152
1.2215,-0.143765
1.22175,-0.156305
1.222,-0.165872
1.22225,-0.170039
1.2225,-0.17879
1.22275,-0.171707
1.223,-0.175523
1.22325,-0.165096
1.2235,-0.155198
1.22375,-0.138613
1.224,-0.111885
1.22425,-0.0992032
1.2245,-0.0700249
1.22475,-0.0437613
1.225,-0.0174022
1.22525,0.00308651
1.2255,0.0268718
1.22575,0.0511712
1.226,0.0743996
1.22625,0.0903944
1.2265,0.101631
1.22675,0.113866
1.227,0.125199
1.22725,0.127719
1.2275,0.137408
1.22775,0.127981
1.228,0.122853
1.22825,0.110156
1.2285,0.100932
1.22875,0.0849752
1.229,0.0730837
1.22925,0.0560306
1.2295,0.0433821
1.22975,0.0245336
1.23,0.00463777
1.23025,-0.0073375
1.2305,-0.0184807
1.23075,-0.02516
1.231,-0.0318158
1.23125,-0.035927
1.2315,-0.038108
1.23175,-0.0382838
1.232,-0.0339623
1.23225,-0.0272415
1.2325,-0.0182121
1.23275,-0.00872803
1.233,0.00392501
1.23325,0.013986
1.2335,0.0252826
1.23375,0.0335974
1.234,0.0443661
1.23425,0.0551884
1.2345,0.0611835
1.23475,0.059272
1.235,0.0584418
1.23525,0.05146
1.2355,0.0401415
1.23575,0.0252718
1.236,0.00926832
1.23625,-0.0144061
1.2365,-0.0317618
1.23675,-0.0655277
1.237,-0.0875206
1.23725,-0.117888
1.2375,-0.146863
1.23775,-0.178393
1.238,-0.206254
1.23825,-0.241862
1.2385,-0.264765
1.23875,-0.286121
1.239,-0.310757
1.23925,-0.325481
1.2395,-0.340741
1.23975,-0.347559
1.24,-0.358553
1.24025,-0.35352
1.2405,-0.354769
1.24075,-0.348663
1.241,-0.346036
1.24125,-0.340281
1.2415,-0.327594
1.24175,-0.314699
1.242,-0.296118
1.24225,-0.286062
1.2425,-0.278961
1.24275,-2.68E-01
1.243,-0.261397
1.24325,-0.25564
1.2435,-0.249237
1.24375,-0.256535
1.244,-0.25586
1.24425,-0.258505
1.2445,-0.273439
1.24475,-0.284934
1.245,-0.297354
1.24525,-0.315401
1.2455,-0.329027
1.24575,-0.339804
1.246,-0.357508
1.24625,-0.370428
1.2465,-0.381503
1.24675,-0.397702
1.247,-0.404853
1.24725,-0.410786
1.2475,-0.410944
1.24775,-0.407329
1.248,-0.408735
1.24825,-0.398953
1.2485,-0.379755
1.24875,-0.36768
1.249,-0.342724
1.24925,-0.327042
1.2495,-0.293054
1.24975,-0.2674
1.25,-0.24726
1.25025,-0.218577
1.2505,-0.196793
1.25075,-0.167948
1.251,-0.145919
1.25125,-0.120159
1.2515,-0.107506
1.25175,-0.0951488
1.252,-0.0841187
1.25225,-0.0753472
1.2525,-0.0747542
1.25275,-0.0754699
1.253,-0.0847546
1.25325,-0.09056
1.2535,-0.100287
1.25375,-0.114621
1.254,-0.126816
1.25425,-0.14639
1.2545,-0.16058
1.25475,-0.170669
1.255,-0.183288
1.25525,-0.200675
1.2555,-0.210429
1.25575,-0.21942
1.256,-0.225496
1.25625,-0.223867
1.2565,-0.226478
1.25675,-0.217173
1.257,-0.220047
1.25725,-0.205245
1.2575,-0.198984
1.25775,-0.183806
1.258,-0.173797
1.25825,-0.159663
1.2585,-0.14488
1.25875,-0.133572
1.259,-0.124653
1.25925,-0.115681
1.2595,-0.10424
1.25975,-0.0997396
1.26,-0.103993
1.26025,-0.11194
1.2605,-0.114938
1.26075,-0.131396
1.261,-0.142071
1.26125,-0.169329
1.2615,-0.191311
1.26175,-0.206843
1.262,-0.235175
1.26225,-0.267229
1.2625,-0.299557
1.26275,-0.321147
1.263,-0.355133
1.26325,-0.376877
1.2635,-0.403629
1.26375,-0.421649
1.264,-0.443724
1.26425,-0.454498
1.2645,-0.470666
1.26475,-0.480145
1.265,-0.477772
1.26525,-0.479681
1.2655,-0.482142
1.26575,-0.476986
1.266,-0.467551
1.26625,-0.455126
1.2665,-0.441321
1.26675,-0.431105
1.267,-0.411132
1.26725,-0.396432
1.2675,-0.385036
1.26775,-0.376332
1.268,-0.364203
1.26825,-0.35595
1.2685,-0.353999
1.26875,-0.352691
1.269,-0.356112
1.26925,-0.356985
1.2695,-0.364835
1.26975,-0.379055
1.27,-0.388837
1.27025,-0.40244
1.2705,-0.416759
1.27075,-0.431706
1.271,-0.445855
1.27125,-0.457899
1.2715,-0.462563
1.27175,-0.476158
1.272,-0.481368
1.27225,-0.481528
1.2725,-0.48088
1.27275,-0.483098
1.273,-0.476754
1.27325,-0.458691
1.2735,-0.446402
1.27375,-0.423039
1.274,-0.40198
1.27425,-0.377983
1.2745,-0.350973
1.27475,-0.328172
1.275,-0.294957
1.27525,-0.275256
1.2755,-0.246105
1.27575,-0.218228
1.276,-0.191138
1.27625,-0.165937
1.2765,-0.146987
1.27675,-0.1378
1.277,-0.124328
1.27725,-0.113931
1.2775,-0.110128
1.27775,-0.109589
1.278,-0.114495
1.27825,-0.123293
1.2785,-0.129375
1.27875,-0.136486
1.279,-0.152213
1.27925,-0.167966
1.2795,-0.183371
1.27975,-0.190861
1.28,-0.201312
1.28025,-0.217651
1.2805,-0.220445
1.28075,-0.225577
1.281,-0.233861
1.28125,-0.232218
1.2815,-0.229888
1.28175,-0.22395
1.282,-0.223732
1.28225,-0.205419
1.2825,-0.197069
1.28275,-0.180765
1.283,-0.166987
1.28325,-0.153699
1.2835,-0.141181
1.28375,-0.124618
1.284,-0.114336
1.28425,-0.105161
1.2845,-0.0925867
1.28475,-0.0897839
1.285,-0.0867634
1.28525,-0.0905482
1.2855,-0.0986663
1.28575,-0.105733
1.286,-0.120499
1.28625,-0.139451
1.2865,-0.159126
1.28675,-0.183894
1.287,-0.209242
1.28725,-0.229454
1.2875,-0.265924
1.28775,-0.283617
1.288,-0.314329
1.28825,-0.341248
1.2885,-0.364357
1.28875,-0.38609
1.289,-0.40087
1.28925,-0.415416
1.2895,-0.427338
1.28975,-0.430201
1.29,-0.433801
1.29025,-0.430402
1.2905,-0.422453
1.29075,-0.413738
1.291,-0.410369
1.29125,-0.393564
1.2915,-0.38505
1.29175,-0.3684
1.292,-0.34603
1.29225,-0.336966
1.2925,-0.322346
1.29275,-0.309975
1.293,-0.297339
1.29325,-0.290764
1.2935,-0.279752
1.29375,-0.278561
1.294,-0.284113
1.29425,-0.285992
1.2945,-0.286312
1.29475,-0.296437
1.295,-0.30192
1.29525,-0.321344
1.2955,-0.329515
1.29575,-0.342495
1.296,-0.355551
1.29625,-0.36705
1.2965,-0.381232
1.29675,-0.38322
1.297,-0.394502
1.29725,-0.393287
1.2975,-0.38818
1.29775,-0.381288
1.298,-0.379041
1.29825,-0.367587
1.2985,-0.341549
1.29875,-0.321711
1.299,-0.30101
1.29925,-0.281012
1.2995,-0.252172
1.29975,-0.219149
1.3,-0.190329
1.30025,-0.158025
1.3005,-0.135077
1.30075,-0.103459
1.301,-0.0741999
1.30125,-0.0583541
1.3015,-0.0337414
1.30175,-0.0150415
1.302,-0.00583834
1.30225,0.00807734
1.3025,0.00728064
1.30275,0.00827901
1.303,0.0130428
1.30325,0.00442888
1.3035,-9.04E-05
1.30375,-0.0135562
1.304,-0.0246849
1.30425,-0.035567
1.3045,-0.053263
1.30475,-0.0634943
1.305,-0.0689726
1.30525,-0.0824969
1.3055,-0.0852759
1.30575,-0.0928932
1.306,-0.10268
1.30625,-0.0986503
1.3065,-0.0916748
1.30675,-0.0871529
1.307,-0.0818171
1.30725,-0.06585
1.3075,-0.0559037
1.30775,-0.043007
1.308,-0.0270613
1.30825,-0.00753832
1.3085,0.0118892
1.30875,0.0268347
1.309,0.0339278
1.30925,0.0446904
1.3095,0.0577509
1.30975,0.0572098
1.31,0.0643733
1.31025,0.0632975
1.3105,0.054498
1.31075,0.0498685
1.311,0.031233
1.31125,0.0122571
1.3115,-0.000884963
1.31175,-0.0264065
1.312,-0.0479205
1.31225,-0.076446
1.3125,-0.0983794
1.31275,-0.1323
1.313,-0.150831
1.31325,-0.174799
1.3135,-0.20208
1.31375,-0.217452
1.314,-0.234509
1.31425,-0.246494
1.3145,-0.260841
1.31475,-0.261794
1.315,-0.270758
1.31525,-0.266809
1.3155,-0.262534
1.31575,-0.25125
1.316,-0.238424
1.31625,-0.226327
1.3165,-0.210424
1.31675,-0.200126
1.317,-0.179897
1.31725,-0.163086
1.3175,-0.147887
1.31775,-0.138566
1.318,-0.127005
1.31825,-0.111263
1.3185,-0.109421
1.31875,-0.10366
1.319,-0.107175
1.31925,-0.110656
1.3195,-0.115233
1.31975,-0.117269
1.32,-0.132236
1.32025,-0.140819
1.3205,-0.148415
1.32075,-0.167108
1.321,-0.174579
1.32125,-0.189076
1.3215,-0.203128
1.32175,-0.201894
1.322,-0.20754
1.32225,-0.215858
1.3225,-0.208196
1.32275,-0.208086
1.323,-0.195006
1.32325,-0.180648
1.3235,-0.170718
1.32375,-0.148567
1.324,-0.125462
1.32425,-0.092075
1.3245,-0.0724289
1.32475,-0.0403486
1.325,-0.00749018
1.32525,0.0191507
1.3255,0.0524483
1.32575,0.0811439
1.326,0.100025
1.32625,0.128576
1.3265,0.146307
1.32675,0.158997
1.327,0.177582
1.32725,0.1853
1.3275,0.193542
1.32775,0.196569
1.328,0.191527
1.32825,0.19074
1.3285,0.176611
1.32875,0.168753
1.329,0.159077
1.32925,0.14614
1.3295,0.135281
1.32975,0.123615
1.33,0.106134
1.33025,0.0971286
1.3305,0.0951928
1.33075,0.0905767
1.331,0.0795539
1.33125,0.0844169
1.3315,0.0891162
1.33175,0.092535
1.332,0.0993619
1.33225,0.108376
1.3325,0.126068
1.33275,0.139562
1.333,0.158851
1.33325,0.166987
1.3335,0.185976
1.33375,0.201393
1.334,0.214599
1.33425,0.221883
1.3345,0.233513
1.33475,0.243463
1.335,0.237992
1.33525,0.243713
1.3355,0.236311
1.33575,0.220045
1.336,0.211762
1.33625,0.195345
1.3365,0.176909
1.33675,0.151687
1.337,0.126594
1.33725,0.0982352
1.3375,0.0684516
1.33775,0.0456933
1.338,0.0189526
1.33825,-0.00754025
1.3385,-0.0280652
1.33875,-0.0444767
1.339,-0.0620447
1.33925,-0.0791691
1.3395,-0.0920953
1.33975,-0.0979506
1.34,-0.0968902
1.34025,-0.0956632
1.3405,-0.0909607
1.34075,-0.0853881
1.341,-0.0711261
1.34125,-0.0547951
1.3415,-0.042838
1.34175,-0.0280545
1.342,-0.01338
1.34225,0.00578086
1.3425,0.0194166
1.34275,0.0279663
1.343,0.0413537
1.34325,0.0485851
1.3435,0.049656
1.34375,0.0521839
1.344,0.0570243
1.34425,0.0520419
1.3445,0.0510062
1.34475,0.039529
1.345,0.0327063
1.34525,0.0172042
1.3455,0.00220261
1.34575,-0.00994453
1.346,-0.0213538
1.34625,-0.0342198
1.3465,-0.0415202
1.34675,-0.0514747
1.347,-0.0611501
1.34725,-0.0631595
1.3475,-0.0612839
1.34775,-0.0600927
1.348,-0.0496081
1.34825,-0.034181
1.3485,-0.0234641
1.34875,0.00356005
1.349,0.0259061
1.34925,0.0493846
1.3495,0.0755622
1.34975,0.100702
1.35,0.130757
1.35025,0.164887
1.3505,0.186018
1.35075,0.216592
1.351,0.241122
1.35125,0.262148
1.3515,0.284156
1.35175,0.30008
1.352,0.310869
1.35225,0.31593
1.3525,0.327712
1.35275,0.321174
1.353,0.321013
1.35325,0.317306
1.3535,0.307233
1.35375,0.300323
1.354,0.289584
1.35425,0.267181
1.3545,0.259864
1.35475,0.248268
1.355,0.229782
1.35525,0.224084
1.3555,0.21486
1.35575,0.209321
1.356,0.201491
1.35625,0.196787
1.3565,0.199543
1.35675,0.209442
1.357,0.216984
1.35725,0.230288
1.3575,0.242581
1.35775,0.252181
1.358,0.26898
1.35825,0.281819
1.3585,0.292731
1.35875,0.311981
1.359,0.326074
1.35925,0.335006
1.3595,0.339307
1.35975,0.345117
1.36,0.338962
1.36025,0.342771
1.3605,0.331964
1.36075,0.326193
1.361,0.306148
1.36125,0.284836
1.3615,0.263508
1.36175,0.245294
1.362,0.220716
1.36225,0.194653
1.3625,0.163433
1.36275,0.135712
1.363,0.112502
1.36325,0.0817596
1.3635,0.0540643
1.36375,0.0388023
1.364,0.020923
1.36425,0.00757519
1.3645,-0.00594574
1.36475,-0.0113218
1.365,-0.0209976
1.36525,-0.0124152
1.3655,-0.0175533
1.36575,-0.00144902
1.366,0.00444983
1.36625,0.0166935
1.3665,0.0264891
1.36675,0.0433798
1.367,0.0563821
1.36725,0.0741271
1.3675,0.083324
1.36775,0.0915451
1.368,0.103034
1.36825,0.108794
1.3685,0.114895
1.36875,0.11768
1.369,0.120407
1.36925,0.113594
1.3695,0.108765
1.36975,0.0919791
1.37,0.0814424
1.37025,0.0682003
1.3705,0.0555618
1.37075,0.0454693
1.371,0.0323028
1.37125,0.0104786
1.3715,0.00541843
1.37175,-0.00524682
1.372,-0.0131482
1.37225,-0.0130255
1.3725,-0.0184277
1.37275,-0.012294
1.373,-0.00601176
1.37325,0.00436408
1.3735,0.0194396
1.37375,0.0389879
1.374,0.0606246
1.37425,0.08069
1.3745,0.109058
1.37475,0.139072
1.375,0.166027
1.37525,0.190929
1.3755,0.215234
1.37575,0.244199
1.376,0.270886
1.37625,0.287163
1.3765,0.312402
1.37675,0.326642
1.377,0.333608
1.37725,0.341396
1.3775,0.340673
1.37775,0.346609
1.378,0.339042
1.37825,0.330057
1.3785,0.322524
1.37875,0.309381
1.379,0.2954
1.37925,0.284528
1.3795,0.274499
1.37975,0.252817
1.38,0.244776
1.38025,0.225118
1.3805,0.220492
1.38075,0.212656
1.381,0.211018
1.38125,0.209221
1.3815,0.20269
1.38175,0.21545
1.382,0.21801
1.38225,0.222646
1.3825,0.237374
1.38275,0.247749
1.383,0.267023
1.38325,0.279062
1.3835,0.294786
1.38375,0.304342
1.384,0.312127
1.38425,0.321863
1.3845,0.327777
1.38475,0.330904
1.385,0.335118
1.38525,0.329994
1.3855,0.321429
1.38575,0.302532
1.386,0.286841
1.38625,0.275047
1.3865,0.249886
1.38675,0.228651
1.387,0.193375
1.38725,0.170543
1.3875,0.141266
1.38775,0.113524
1.388,0.0850208
1.38825,0.0573432
1.3885,0.032482
1.38875,0.00665097
1.389,-0.00512522
1.38925,-0.0240671
1.3895,-0.0391525
1.38975,-0.0470774
1.39,-0.0545369
1.39025,-0.0499954
1.3905,-0.0484231
1.39075,-0.0391276
1.391,-0.0314933
1.39125,-0.021455
1.3915,-0.0152531
1.39175,0.00305511
1.392,0.0112237
1.39225,0.0282648
1.3925,0.0413982
1.39275,0.0507912
1.393,0.060201
1.39325,0.0658964
1.3935,0.0676645
1.39375,0.06762
1.394,0.0724133
1.39425,0.0682101
1.3945,0.0549017
1.39475,0.0403601
1.395,0.0344538
1.39525,0.0195818
1.3955,0.00259741
1.39575,-0.0138262
1.396,-0.0254965
1.39625,-0.0368113
1.3965,-0.0475554
1.39675,-0.0615834
1.397,-0.0735543
1.39725,-0.0750423
1.3975,-0.0723281
1.39775,-0.0682915
1.398,-0.0664511
1.39825,-0.0541456
1.3985,-0.0451091
1.39875,-0.0259076
1.399,-0.000222748
1.39925,0.0206935
1.3995,0.0396428
1.39975,0.0679275
1.4,0.0979154
1.40025,0.122613
1.4005,0.15511
1.40075,0.172614
1.401,0.201331
1.40125,0.222571
1.4015,0.237575
1.40175,0.256459
1.402,0.258458
1.40225,0.265332
1.4025,0.274139
1.40275,0.275207
1.403,0.261725
1.40325,0.261728
1.4035,0.246245
1.40375,0.237674
1.404,0.217401
1.40425,0.208086
1.4045,0.187097
1.40475,0.173531
1.405,0.15795
1.40525,0.144563
1.4055,0.143867
1.40575,0.126088
1.406,0.122488
1.40625,0.12217
1.4065,0.119398
1.40675,0.124957
1.407,0.128897
1.40725,0.142682
1.4075,0.156095
1.40775,0.167765
1.408,0.177453
1.40825,0.190767
1.4085,0.198928
1.40875,0.214872
1.409,0.226779
1.40925,0.229642
1.4095,0.2412
1.40975,0.243482
1.41,0.244879
1.41025,0.237356
1.4105,0.228794
1.41075,0.211881
1.411,0.195494
1.41125,0.180166
1.4115,0.158624
1.41175,0.1333
1.412,0.107432
1.41225,0.0769738
1.4125,0.044201
1.41275,0.0147912
1.413,-0.0133623
1.41325,-0.0396587
1.4135,-0.0645202
1.41375,-0.0808639
1.414,-0.109151
1.41425,-0.119168
1.4145,-0.132885
1.41475,-0.13788
1.415,-0.146691
1.41525,-0.150299
1.4155,-0.14419
1.41575,-0.140517
1.416,-0.127444
1.41625,-0.125094
1.4165,-0.10829
1.41675,-0.0967354
1.417,-0.0775814
1.41725,-0.0717971
1.4175,-0.0595388
1.41775,-0.0440754
1.418,-0.0424052
1.41825,-0.0297407
1.4185,-0.0272695
1.41875,-0.0253246
1.419,-0.0300006
1.41925,-0.033653
1.4195,-0.0404433
1.41975,-0.0499995
1.42,-0.0685973
1.42025,-0.0777684
1.4205,-0.0917998
1.42075,-0.116111
1.421,-0.121474
1.42125,-0.138892
1.4215,-0.148129
1.42175,-0.15842
1.422,-0.168168
1.42225,-0.170791
1.4225,-0.180729
1.42275,-0.168921
1.423,-0.170946
1.42325,-0.15624
1.4235,-0.142476
1.42375,-0.125842
1.424,-0.10429
1.42425,-0.0795779
1.4245,-0.0602397
1.42475,-0.0278645
1.425,0.00265402
1.42525,0.028758
1.4255,0.0538059
1.42575,0.0777733
1.426,0.0971442
1.42625,0.12173
1.4265,0.136998
1.42675,0.156558
1.427,0.16039
1.42725,0.174167
1.4275,0.176985
1.42775,0.175888
1.428,0.164352
1.42825,0.159725
1.4285,0.153593
1.42875,0.132157
1.429,0.127609
1.42925,0.104239
1.4295,0.0960535
1.42975,0.0825334
1.43,0.0670299
1.43025,0.0519805
1.4305,0.040594
1.43075,0.0351825
1.431,0.029012
1.43125,0.0299123
1.4315,0.0252841
1.43175,0.0290232
1.432,0.032597
1.43225,0.0439317
1.4325,0.0576879
1.43275,0.0722943
1.433,0.0822481
1.43325,0.0921632
1.4335,0.107058
1.43375,0.125131
1.434,0.128711
1.43425,0.137098
1.4345,0.145465
1.43475,0.144514
1.435,0.144618
1.43525,0.140148
1.4355,0.131939
1.43575,0.127736
1.436,0.103443
1.43625,0.0872336
1.4365,0.0683069
1.43675,0.0370614
1.437,0.0156846
1.43725,-0.00875236
1.4375,-0.0435558
1.43775,-0.0698982
1.438,-0.102113
1.43825,-0.121793
1.4385,-0.147981
1.43875,-0.170468
1.439,-0.18769
1.43925,-0.208216
1.4395,-0.219513
1.43975,-0.226626
1.44,-0.230008
1.44025,-0.232833
1.4405,-0.224953
1.44075,-0.222062
1.441,-0.216607
1.44125,-0.205323
1.4415,-0.188172
1.44175,-0.177704
1.442,-0.167466
1.44225,-0.152964
1.4425,-0.13838
1.44275,-0.122592
1.443,-0.113871
1.44325,-0.113243
1.4435,-0.104125
1.44375,-0.104925
1.444,-0.111275
1.44425,-0.112901
1.4445,-0.12075
1.44475,-1.34E-01
1.445,-0.147366
1.44525,-0.154209
1.4455,-0.170984
1.44575,-0.186609
1.446,-0.19523
1.44625,-0.210566
1.4465,-0.223633
1.44675,-0.23286
1.447,-0.24034
1.44725,-0.24673
1.4475,-0.247771
1.44775,-0.243219
1.448,-0.234892
1.44825,-0.228912
1.4485,-0.211606
1.44875,-0.193913
1.449,-0.171463
1.44925,-0.147176
1.4495,-0.11803
1.44975,-0.0967248
1.45,-0.0675814
1.45025,-0.0372286
1.4505,-0.00744457
1.45075,0.0154127
1.451,0.0389377
1.45125,0.0563909
1.4515,0.0779845
1.45175,0.090207
1.452,0.103124
1.45225,0.111077
1.4525,0.117211
1.45275,0.118599
1.453,0.112233
1.45325,0.100455
1.4535,0.0887093
1.45375,0.0780507
1.454,0.0644146
1.45425,0.0517813
1.4545,0.0422049
1.45475,0.0235147
1.455,0.016615
1.45525,0.000486058
1.4555,-0.0118588
1.45575,-0.0183456
1.456,-0.0173723
1.45625,-0.0211609
1.4565,-0.0259009
1.45675,-0.0130986
1.457,-0.0112222
1.45725,-0.00133674
1.4575,0.0128416
1.45775,0.0242796
1.458,0.0350397
1.45825,0.053868
1.4585,0.0645131
1.45875,0.0752715
1.459,0.0910453
1.45925,0.0962497
1.4595,0.1063
1.45975,0.108708
1.46,0.109788
1.46025,0.102005
1.4605,0.100215
1.46075,0.0911134
1.461,0.068388
1.46125,0.0563072
1.4615,0.0293807
1.46175,0.00886263
1.462,-0.0172923
1.46225,-0.0451996
1.4625,-0.0791742
1.46275,-0.104852
1.463,-0.131573
1.46325,-0.156832
1.4635,-0.17846
1.46375,-0.200246
1.464,-0.222894
1.46425,-0.236288
1.4645,-0.246002
1.46475,-0.258218
1.465,-0.257577
1.46525,-0.260227
1.4655,-0.253329
1.46575,-0.246523
1.466,-0.232439
1.46625,-0.226494
1.4665,-0.21667
1.46675,-0.200767
1.467,-0.179135
1.46725,-0.172763
1.4675,-0.160521
1.46775,-0.140383
1.468,-0.14034
1.46825,-0.128205
1.4685,-0.121236
1.46875,-0.120381
1.469,-0.120709
1.46925,-0.12735
1.4695,-0.136051
1.46975,-0.141119
1.47,-0.157059
1.47025,-0.165791
1.4705,-0.183352
1.47075,-0.194233
1.471,-0.206139
1.47125,-0.222553
1.4715,-0.230956
1.47175,-0.239303
1.472,-0.254088
1.47225,-0.249755
1.4725,-0.254655
1.47275,-0.252967
1.473,-0.245369
1.47325,-0.230962
1.4735,-0.210333
1.47375,-0.199837
1.474,-0.172482
1.47425,-0.146726
1.4745,-0.123759
1.47475,-0.0988965
1.475,-0.0631565
1.47525,-0.035991
1.4755,-0.0121341
1.47575,0.0183378
1.476,0.0402886
1.47625,0.063474
1.4765,0.0773336
1.47675,0.0979873
1.477,0.110711
1.47725,0.110875
1.4775,0.122821
1.47775,0.12121
1.478,0.117982
1.47825,0.111685
1.4785,0.104499
1.47875,0.0850017
1.479,0.0744513
1.47925,0.0596401
1.4795,0.0466544
1.47975,0.0332026
1.48,0.0230528
1.48025,0.013159
1.4805,-0.00188596
1.48075,0.000217221
1.481,-0.00971902
1.48125,-0.00434889
1.4815,-0.00936246
1.48175,0.0018903
1.482,0.00487081
1.48225,0.0152504
1.4825,0.0272486
1.48275,0.035531
1.483,0.0499451
1.48325,0.0707913
1.4835,0.0802076
1.48375,0.100139
1.484,0.107184
1.48425,0.116841
1.4845,0.12335
1.48475,0.129152
1.485,0.128042
1.48525,0.129307
1.4855,0.117434
1.48575,0.106489
1.486,0.0992249
1.48625,0.0804092
1.4865,0.0528378
1.48675,0.0314044
1.487,0.00767311
1.48725,-0.018606
1.4875,-0.0459213
1.48775,-0.0774291
1.488,-0.106363
1.48825,-0.127028
1.4885,-0.156677
1.48875,-0.168708
1.489,-0.196103
1.48925,-0.208511
1.4895,-0.216587
1.48975,-0.228508
1.49,-0.231491
1.49025,-0.229015
1.4905,-0.222319
1.49075,-0.21329
1.491,-0.210861
1.49125,-0.196846
1.4915,-0.181185
1.49175,-0.167773
1.492,-0.154434
1.49225,-0.135783
1.4925,-0.125946
1.49275,-0.108926
1.493,-0.0977012
1.49325,-0.0905364
1.4935,-0.0870948
1.49375,-0.0859775
1.494,-0.0870316
1.49425,-0.0896288
1.4945,-0.0974337
1.49475,-0.106167
1.495,-0.121091
1.49525,-0.130425
1.4955,-0.144303
1.49575,-0.162177
1.496,-0.175428
1.49625,-0.182152
1.4965,-0.199031
1.49675,-0.204055
1.497,-0.205476
1.49725,-0.217216
1.4975,-0.214917
1.49775,-0.210681
1.498,-0.200445
1.49825,-0.187754
1.4985,-0.17508
1.49875,-0.154188
1.499,-0.130751
1.49925,-0.108475
1.4995,-0.0831405
1.49975,-0.0580448
1.5,-0.0287138
1.50025,0.00602199
1.5005,0.0366095
1.50075,0.0570699
1.501,0.0820409
1.50125,0.104875
1.5015,0.119882
1.50175,0.138287
1.502,0.154374
1.50225,0.155929
1.5025,0.168269
1.50275,0.159934
1.503,0.15764
1.50325,0.158615
1.5035,0.15014
1.50375,0.140027
1.504,0.119302
1.50425,0.111049
1.5045,0.0920701
1.50475,0.0793927
1.505,0.0673998
1.50525,0.056051
1.5055,0.0486191
1.50575,0.0388797
1.506,0.0345596
1.50625,0.0357666
1.5065,0.0405576
1.50675,0.0466297
1.507,0.0544296
1.50725,0.0604794
1.5075,0.0753143
1.50775,0.088887
1.508,0.101042
1.50825,0.119666
1.5085,0.132457
1.50875,0.150085
1.509,0.152234
1.50925,0.166745
1.5095,0.177891
1.50975,0.180935
1.51,0.17868
1.51025,0.175935
1.5105,0.168721
1.51075,0.156289
1.511,0.138627
1.51125,0.12795
1.5115,0.103375
1.51175,0.0840814
1.512,0.0529173
1.51225,0.0272899
1.5125,0.00484549
1.51275,-0.0239504
1.513,-0.0567894
1.51325,-0.0784672
1.5135,-0.100589
1.51375,-0.127433
1.514,-0.14026
1.51425,-0.155881
1.5145,-0.16377
1.51475,-0.173212
1.515,-0.175897
1.51525,-0.182952
1.5155,-0.179235
1.51575,-0.16978
1.516,-0.156956
1.51625,-0.141611
1.5165,-0.130508
1.51675,-0.119936
1.517,-0.105709
1.51725,-0.0922577
1.5175,-0.0758544
1.51775,-0.0654162
1.518,-0.0560022
1.51825,-0.0446743
1.5185,-0.0435112
1.51875,-0.0422764
1.519,-0.0384028
1.51925,-0.0474397
1.5195,-0.0540348
1.51975,-0.0590911
1.52,-0.069972
1.52025,-0.0797593
1.5205,-0.101666
1.52075,-0.113925
1.521,-0.124423
1.52125,-0.138465
1.5215,-0.153625
1.52175,-0.154184
1.522,-0.164511
1.52225,-0.167336
1.5225,-0.170267
1.52275,-0.16423
1.523,-0.149987
1.52325,-0.141317
1.5235,-0.125237
1.52375,-0.110021
1.524,-0.0872284
1.52425,-0.0672568
1.5245,-0.0336734
1.52475,-0.0109298
1.525,0.0199752
1.52525,0.0437172
1.5255,0.071488
1.52575,0.104824
1.526,0.126402
1.52625,0.148458
1.5265,0.165943
1.52675,0.187528
1.527,0.193514
1.52725,0.207073
1.5275,0.207257
1.52775,0.203694
1.528,0.202172
1.52825,0.200912
1.5285,0.18939
1.52875,0.173731
1.529,0.166533
1.52925,0.151182
1.5295,0.138266
1.52975,0.127809
1.53,0.106237
1.53025,0.102467
1.5305,0.0944704
1.53075,0.0825115
1.531,0.0796433
1.53125,0.073876
1.5315,0.0831627
1.53175,0.0796606
1.532,0.0952703
1.53225,0.0998799
1.5325,0.108118
1.53275,0.129547
1.533,0.145169
1.53325,0.157164
1.5335,0.164089
1.53375,0.182662
1.534,0.198082
1.53425,0.204624
1.5345,0.209627
1.53475,0.216387
1.535,0.217759
1.53525,0.207544
1.5355,0.207064
1.53575,0.193191
1.536,0.182317
1.53625,0.162727
1.5365,0.139622
1.53675,0.118021
1.537,0.0877702
1.53725,0.063237
1.5375,0.0314632
1.53775,0.00643148
1.538,-0.0270742
1.53825,-0.0519996
1.5385,-0.0706395
1.53875,-0.0947389
1.539,-0.115361
1.53925,-0.121542
1.5395,-0.138089
1.53975,-0.141765
1.54,-0.152585
1.54025,-0.148692
1.5405,-0.145285
1.54075,-0.138216
1.541,-0.131957
1.54125,-0.113954
1.5415,-0.101575
1.54175,-0.0886704
1.542,-0.0753375
1.54225,-0.0571409
1.5425,-0.0462611
1.54275,-0.0323885
1.543,-0.0249346
1.54325,-0.0230292
1.5435,-0.0197004
1.54375,-0.0103747
1.544,-0.0170385
1.54425,-0.0231232
1.5445,-0.0300334
1.54475,-0.0304611
1.545,-0.0501136
1.54525,-0.0614225
1.5455,-0.0703409
1.54575,-0.0872346
1.546,-0.104329
1.54625,-0.114951
1.5465,-0.130294
1.54675,-0.13044
1.547,-0.142108
1.54725,-0.148115
1.5475,-0.142895
1.54775,-0.146295
1.548,-0.133149
1.54825,-0.125868
1.5485,-0.110408
1.54875,-0.0901592
1.549,-0.0685243
1.54925,-0.0424459
1.5495,-0.0166961
1.54975,0.0112607
1.55,0.0347422
1.55025,0.0646668
1.5505,0.0919353
1.55075,0.11954
1.551,0.142841
1.55125,0.165755
1.5515,0.183444
1.55175,0.201286
1.552,0.20885
1.55225,0.216748
1.5525,0.217849
1.55275,0.224831
1.553,0.217719
1.55325,0.206386
1.5535,0.204375
1.55375,0.195396
1.554,0.178931
1.55425,0.167794
1.5545,0.152571
1.55475,0.134703
1.555,0.11892
1.55525,0.108057
1.5555,0.104826
1.55575,0.0927568
1.556,0.0870397
1.55625,0.0871516
1.5565,0.094195
1.55675,0.095492
1.557,0.0957697
1.55725,0.110476
1.5575,0.116922
1.55775,0.130236
1.558,0.147157
1.55825,0.1595
1.5585,0.179825
1.55875,0.194392
1.559,0.197934
1.55925,0.209326
1.5595,0.21526
1.55975,0.22331
1.56,0.220771
1.56025,0.213831
1.5605,0.207931
1.56075,0.19583
1.561,0.18077
1.56125,0.168199
1.5615,0.143442
1.56175,0.116802
1.562,0.0917944
1.56225,0.0666125
1.5625,0.0398482
1.56275,0.00335266
1.563,-0.017968
1.56325,-0.0454225
1.5635,-0.0654329
1.56375,-0.0919432
1.564,-0.108485
1.56425,-0.129173
1.5645,-0.135602
1.56475,-0.143076
1.565,-0.151448
1.56525,-0.143733
1.5655,-0.143414
1.56575,-0.137781
1.566,-0.130542
1.56625,-0.113434
1.5665,-0.108677
1.56675,-0.0871721
1.567,-0.0744733
1.56725,-0.0608742
1.5675,-0.0484087
1.56775,-0.0344428
1.568,-0.0299906
1.56825,-0.0240731
1.5685,-0.0230991
1.56875,-0.0149389
1.569,-0.0196338
1.56925,-0.023973
1.5695,-0.0354123
1.56975,-0.0418042
1.57,-0.0531764
1.57025,-0.0650782
1.5705,-0.0833497
1.57075,-0.0890113
1.571,-0.107856
1.57125,-0.124953
1.5715,-0.136854
1.57175,-0.144232
1.572,-0.14888
1.57225,-0.15207
1.5725,-0.15068
1.57275,-0.150628
1.573,-0.143482
1.57325,-0.128788
1.5735,-0.117171
1.57375,-0.0962827
1.574,-0.0755374
1.57425,-0.0543636
1.5745,-0.0244482
1.57475,-0.00143063
1.575,0.0310778
1.57525,0.0581576
1.5755,0.0852192
1.57575,0.109403
1.576,0.138055
1.57625,0.151124
1.5765,0.170309
1.57675,0.186228
1.577,0.197602
1.57725,0.203126
1.5775,0.208547
1.57775,0.207001
1.578,0.207932
1.57825,0.196591
1.5785,0.190439
1.57875,0.173378
1.579,0.165649
1.57925,0.152934
1.5795,0.131871
1.57975,0.122483
1.58,0.106391
1.58025,0.0923409
1.5805,0.0897867
1.58075,0.0793669
1.581,0.0756376
1.58125,0.0767692
1.5815,0.0768464
1.58175,0.0760264
1.582,8.83E-02
1.58225,0.0971247
1.5825,0.111025
1.58275,0.115073
1.583,0.129556
1.58325,0.149371
1.5835,0.164494
1.58375,0.177313
1.584,0.189989
1.58425,0.198657
1.5845,0.201887
1.58475,0.20668
1.585,0.201048
1.58525,0.195679
1.5855,0.196634
1.58575,0.179544
1.586,0.164954
1.58625,0.142648
1.5865,0.12219
1.58675,0.105683
1.587,0.0715292
1.58725,0.0471228
1.5875,0.0150962
1.58775,-0.0115666
1.588,-0.039628
1.58825,-0.066132
1.5885,-0.0896612
1.58875,-0.1145
1.589,-0.129352
1.58925,-0.142786
1.5895,-0.155473
1.58975,-0.15842
1.59,-0.164288
1.59025,-0.170167
1.5905,-0.167502
1.59075,-0.160791
1.591,-0.148555
1.59125,-0.140882
1.5915,-0.127559
1.59175,-0.108871
1.592,-0.0930853
1.59225,-0.0811822
1.5925,-0.0687371
1.59275,-0.0617471
1.593,-0.0481655
1.59325,-0.0375807
1.5935,-0.0356984
1.59375,-0.0358859
1.594,-0.0397987
1.59425,-0.0422287
1.5945,-0.0453028
1.59475,-0.0586452
1.595,-0.0755328
1.59525,-0.0821354
1.5955,-0.0946086
1.59575,-0.11234
1.596,-0.131826
1.59625,-0.139794
1.5965,-0.14931
1.59675,-0.163913
1.597,-0.169891
1.59725,-0.16951
1.5975,-0.167931
1.59775,-0.167562
1.598,-0.160146
1.59825,-0.148872
1.5985,-0.133169
1.59875,-0.113092
1.599,-0.0981799
1.59925,-0.076666
1.5995,-0.0515808
1.59975,-0.0197676
1.6,0.0105571
1.60025,0.0352662
1.6005,0.063706
1.60075,0.0878761
1.601,0.110823
1.60125,0.133673
1.6015,0.157436
1.60175,0.17192
1.602,0.17727
1.60225,0.182528
1.6025,0.187856
1.60275,0.186268
1.603,0.190932
1.60325,0.176775
1.6035,0.170122
1.60375,0.157623
1.604,0.148835
1.60425,0.12948
1.6045,0.117359
1.60475,0.100531
1.605,0.0872322
1.60525,0.0740301
1.6055,0.0644982
1.60575,0.0619364
1.606,0.0607751
1.60625,0.0569582
1.6065,0.0525445
1.60675,0.0636147
1.607,0.0684855
1.60725,0.0776843
1.6075,0.0833602
1.60775,0.101385
1.608,0.114446
1.60825,0.127594
1.6085,0.140572
1.60875,0.154728
1.609,0.164961
1.60925,0.178513
1.6095,0.183484
1.60975,0.185093
1.61,0.181756
1.61025,0.177115
1.6105,0.176689
1.61075,0.157524
1.611,0.150317
1.61125,0.129725
1.6115,0.10489
1.61175,0.080965
1.612,0.0533241
1.61225,0.0287484
1.6125,-0.00418736
1.61275,-0.0305499
1.613,-0.0580024
1.61325,-0.0781636
1.6135,-0.107041
1.61375,-0.123849
1.614,-0.148309
1.61425,-0.163249
1.6145,-0.174504
1.61475,-0.185294
1.615,-0.181957
1.61525,-0.180847
1.6155,-0.184305
1.61575,-0.170926
1.616,-0.168083
1.61625,-0.150234
1.6165,-0.142034
1.61675,-0.122427
1.617,-0.112412
1.61725,-0.096947
1.6175,-0.0814873
1.61775,-0.0781384
1.618,-0.0678137
1.61825,-0.0631629
1.6185,-0.0527064
1.61875,-0.0477971
1.619,-0.0567272
1.61925,-0.0554857
1.6195,-0.0646419
1.61975,-0.0750714
1.62,-0.0857609
1.62025,-0.0982875
1.6205,-0.112063
1.62075,-0.131801
1.621,-0.139066
1.62125,-0.157196
1.6215,-0.164942
1.62175,-0.175751
1.622,-0.181653
1.62225,-0.190935
1.6225,-0.186302
1.62275,-0.184707
1.623,-0.176236
1.62325,-0.163201
1.6235,-0.144986
1.62375,-0.131897
1.624,-0.10773
1.62425,-0.0827094
1.6245,-0.0647925
1.62475,-0.0365014
1.625,-0.00767386
1.62525,0.0190851
1.6255,0.0486379
1.62575,0.0814501
1.626,0.103052
1.62625,0.119927
1.6265,0.136229
1.62675,0.158826
1.627,0.170342
1.62725,0.175877
1.6275,0.178908
1.62775,0.175328
1.628,0.177024
1.62825,0.172279
1.6285,0.163178
1.62875,0.148272
1.629,0.129702
1.62925,0.122274
1.6295,0.107903
1.62975,0.0870935
1.63,0.0740919
1.63025,0.0619825
1.6305,0.0587487
1.63075,0.0466161
1.631,0.048277
1.63125,0.0390582
1.6315,0.0483765
1.63175,0.0529788
1.632,0.059086
1.63225,0.062552
1.6325,0.0746943
1.63275,0.0930727
1.633,0.102644
1.63325,0.121394
1.6335,0.128548
1.63375,0.148045
1.634,0.155459
1.63425,0.16253
1.6345,0.176031
1.63475,0.174321
1.635,0.18031
1.63525,0.17541
1.6355,0.164693
1.63575,0.156323
1.636,0.137887
1.63625,0.123387
1.6365,0.10356
1.63675,0.0794955
1.637,0.0479551
1.63725,0.0236695
1.6375,-0.00392606
1.63775,-0.036259
1.638,-0.0642267
1.63825,-0.0923824
1.6385,-0.112237
1.63875,-0.137686
1.639,-0.15408
1.63925,-0.16623
1.6395,-0.180095
1.63975,-0.190597
1.64,-0.186428
1.64025,-0.192593
1.6405,-0.185667
1.64075,-0.179172
1.641,-0.17031
1.64125,-0.158751
1.6415,-0.14672
1.64175,-0.129246
1.642,-0.121323
1.64225,-0.0995127
1.6425,-0.0899946
1.64275,-0.0825814
1.643,-0.0705473
1.64325,-0.0664207
1.6435,-0.0533393
1.64375,-0.0608085
1.644,-0.0553213
1.64425,-0.0658834
1.6445,-0.0725359
1.64475,-0.0794558
1.645,-0.092578
1.64525,-0.101031
1.6455,-0.119173
1.64575,-0.133413
1.646,-0.148739
1.64625,-0.15962
1.6465,-0.168737
1.64675,-0.179386
1.647,-0.184543
1.64725,-0.194022
1.6475,-0.185207
1.64775,-0.186776
1.648,-0.175946
1.64825,-0.164736
1.6485,-0.153048
1.64875,-0.133386
1.649,-0.106881
1.64925,-0.0913262
1.6495,-0.0584058
1.64975,-0.0306887
1.65,-0.00134344
1.65025,0.0184743
1.6505,0.0490692
1.65075,0.0754879
1.651,0.100894
1.65125,0.121848
1.6515,0.140319
1.65175,0.156075
1.652,0.16545
1.65225,0.176155
1.6525,0.182009
1.65275,0.181625
1.653,0.179457
1.65325,0.166967
1.6535,0.15736
1.65375,0.151697
1.654,0.137869
1.65425,0.116556
1.6545,0.104985
1.65475,0.0948004
1.655,0.0799854
1.65525,0.0686991
1.6555,0.0602232
1.65575,0.0561495
1.656,0.0447234
1.65625,0.0501221
1.6565,0.043562
1.65675,0.0475447
1.657,0.0556623
1.65725,0.0670946
1.6575,0.0785235
1.65775,0.0894481
1.658,0.108873
1.65825,0.124898
1.6585,0.135827
1.65875,0.148985
1.659,0.157244
1.65925,0.165926
1.6595,0.180615
1.65975,0.179691
1.66,1.76E-01
1.66025,0.171951
1.6605,0.170209
1.66075,0.162219
1.661,0.141415
1.66125,0.125461
1.6615,0.0980898
1.66175,0.0741082
1.662,0.0503319
1.66225,0.0286291
1.6625,0.000419169
1.66275,-0.0343968
1.663,-0.0545436
1.66325,-0.0872416
1.6635,-0.104577
1.66375,-0.126109
1.664,-0.152269
1.66425,-0.165995
1.6645,-0.178298
1.66475,-0.179324
1.665,-0.189908
1.66525,-0.181526
1.6655,-0.177196
1.66575,-0.176944
1.666,-0.161341
1.66625,-0.149862
1.6665,-0.140758
1.66675,-0.125501
1.667,-0.115474
1.66725,-0.0971614
1.6675,-0.0807248
1.66775,-0.0773244
1.668,-0.0603613
1.66825,-0.0545092
1.6685,-0.0532525
1.66875,-0.0492284
1.669,-0.0522257
1.66925,-0.0540973
1.6695,-0.0624418
1.66975,-0.071208
1.67,-0.0822028
1.67025,-0.093
1.6705,-0.115488
1.67075,-0.124871
1.671,-0.139143
1.67125,-0.149338
1.6715,-0.164637
1.67175,-0.174631
1.672,-0.176546
1.67225,-0.181715
1.6725,-0.180627
1.67275,-0.183361
1.673,-0.175013
1.67325,-0.16145
1.6735,-0.142763
1.67375,-0.124641
1.674,-0.103547
1.67425,-0.0791798
1.6745,-0.0551226
1.67475,-0.0283062
1.675,0.00115983
1.67525,0.028518
1.6755,0.056746
1.67575,0.0777014
1.676,0.104479
1.67625,0.12577
1.6765,0.150819
1.67675,0.163646
1.677,0.175729
1.67725,0.183848
1.6775,0.187258
1.67775,0.183059
1.678,0.180614
1.67825,0.172908
1.6785,0.163001
1.67875,0.15205
1.679,0.144003
1.67925,0.128155
1.6795,0.11668
1.67975,0.0939685
1.68,0.089487
1.68025,0.070083
1.6805,0.0686624
1.68075,0.0573468
1.681,0.0570878
1.68125,0.0495974
1.6815,0.0556083
1.68175,0.0627331
1.682,0.069207
1.68225,0.07428
1.6825,0.0905116
1.68275,0.0977369
1.683,0.111304
1.68325,0.129506
1.6835,0.146848
1.68375,0.155921
1.684,0.168238
1.68425,0.179726
1.6845,0.17927
1.68475,0.183289
1.685,0.188442
1.68525,0.180216
1.6855,0.173237
1.68575,0.163387
1.686,0.152839
1.68625,0.126615
1.6865,0.114267
1.68675,0.0891638
1.687,0.0566467
1.68725,0.0297147
1.6875,-0.00110026
1.68775,-0.0282566
1.688,-0.0505542
1.68825,-0.0758193
1.6885,-0.0981326
1.68875,-0.125738
1.689,-0.142906
1.68925,-0.160059
1.6895,-0.169435
1.68975,-0.177956
1.69,-0.18125
1.69025,-0.178688
1.6905,-0.170688
1.69075,-0.168789
1.691,-0.161402
1.69125,-0.148593
1.6915,-0.13801
1.69175,-0.118104
1.692,-0.10412
1.69225,-0.0884112
1.6925,-0.0763503
1.69275,-0.0660642
1.693,-0.0564735
1.69325,-0.0462837
1.6935,-0.046155
1.69375,-0.0405214
1.694,-0.0445495
1.69425,-0.0479997
1.6945,-0.0557919
1.69475,-0.0640115
1.695,-0.078195
1.69525,-0.0942917
1.6955,-0.107359
1.69575,-0.120344
1.696,-0.136513
1.69625,-0.141588
1.6965,-0.158543
1.69675,-0.16963
1.697,-0.170102
1.69725,-0.174844
1.6975,-0.174213
1.69775,-0.171792
1.698,-0.163655
1.69825,-0.154347
1.6985,-0.141872
1.69875,-0.123937
1.699,-0.100875
1.69925,-0.0764333
1.6995,-0.0481541
1.69975,-0.0191987
1.7,0.00539435
1.70025,0.0328579
1.7005,0.0614291
1.70075,0.0878777
1.701,0.115987
1.70125,0.138299
1.7015,0.155686
1.70175,0.16435
1.702,0.178026
1.70225,0.188221
1.7025,0.190689
1.70275,0.19229
1.703,0.189916
1.70325,0.181296
1.7035,0.171837
1.70375,0.162128
1.704,0.148505
1.70425,0.128259
1.7045,0.116055
1.70475,0.107072
1.705,0.0876854
1.70525,0.0770265
1.7055,0.0665212
1.70575,0.0637499
1.706,0.0578525
1.70625,0.059445
1.7065,0.0569092
1.70675,0.0594295
1.707,0.0710952
1.70725,0.0818131
1.7075,0.0883998
1.70775,0.107218
1.708,0.122473
1.70825,0.130211
1.7085,0.145918
1.70875,0.158362
1.709,0.174542
1.70925,0.178148
1.7095,0.19089
1.70975,0.190191
1.71,0.193545
1.71025,0.186672
1.7105,0.177567
1.71075,0.163614
1.711,0.148661
1.71125,0.135434
1.7115,0.11801
1.71175,0.0928414
1.712,0.06372
1.71225,0.0355831
1.7125,0.00645016
1.71275,-0.0170853
1.713,-0.046285
1.71325,-0.0787541
1.7135,-0.0979201
1.71375,-0.116246
1.714,-0.138987
1.71425,-0.15654
1.7145,-0.164198
1.71475,-0.171931
1.715,-0.175243
1.71525,-0.174479
1.7155,-0.173629
1.71575,-0.162645
1.716,-0.158313
1.71625,-0.148501
1.7165,-0.129959
1.71675,-0.113245
1.717,-0.105848
1.71725,-0.0880218
1.7175,-0.0732263
1.71775,-0.0666217
1.718,-0.0527219
1.71825,-0.045805
1.7185,-0.0469204
1.71875,-0.038926
1.719,-0.0404772
1.71925,-0.0525751
1.7195,-0.05376
1.71975,-0.0672574
1.72,-0.0801402
1.72025,-0.086879
1.7205,-0.0995172
1.72075,-0.121308
1.721,-0.133871
1.72125,-0.147666
1.7215,-0.1598
1.72175,-0.164329
1.722,-0.173658
1.72225,-0.173367
1.7225,-0.171814
1.72275,-0.168047
1.723,-0.166856
1.72325,-0.155427
1.7235,-0.138378
1.72375,-0.11958
1.724,-0.0941208
1.72425,-0.0763912
1.7245,-0.0460684
1.72475,-0.0211606
1.725,0.0130016
1.72525,0.0359701
1.7255,0.0598612
1.72575,0.0886819
1.726,0.112338
1.72625,0.139552
1.7265,0.153344
1.72675,0.167217
1.727,0.177614
1.72725,0.183677
1.7275,0.190711
1.72775,0.187329
1.728,0.187568
1.72825,0.184688
1.7285,0.167875
1.72875,0.160185
1.729,0.152073
1.72925,0.129968
1.7295,0.114728
1.72975,0.100412
1.73,0.093095
1.73025,0.0812058
1.7305,0.0709809
1.73075,0.066117
1.731,0.0626689
1.73125,0.0616459
1.7315,0.0628178
1.73175,0.059149
1.732,0.0701613
1.73225,0.0802119
1.7325,0.0870283
1.73275,0.100363
1.733,0.122938
1.73325,0.132984
1.7335,0.145853
1.73375,0.16149
1.734,0.17235
1.73425,0.180445
1.7345,0.191143
1.73475,0.18946
1.735,0.186676
1.73525,0.184964
1.7355,0.181207
1.73575,0.169787
1.736,0.154452
1.73625,0.138549
1.7365,0.110691
1.73675,0.0884682
1.737,0.059773
1.73725,0.0341748
1.7375,0.00540551
1.73775,-0.018429
1.738,-0.0447902
1.73825,-0.0700791
1.7385,-0.0972254
1.73875,-0.118459
1.739,-0.135931
1.73925,-0.157798
1.7395,-0.162799
1.73975,-0.170113
1.74,-0.174944
1.74025,-0.178197
1.7405,-0.171433
1.74075,-0.161799
1.741,-0.155001
1.74125,-0.140603
1.7415,-0.135775
1.74175,-0.120441
1.742,-0.10522
1.74225,-0.087071
1.7425,-0.0810862
1.74275,-0.0649619
1.743,-0.0538893
1.74325,-0.0437616
1.7435,-0.0426488
1.74375,-0.0395579
1.744,-0.0441045
1.74425,-0.0464491
1.7445,-0.059709
1.74475,-0.0666078
1.745,-0.0790229
1.74525,-0.093388
1.7455,-0.10431
1.74575,-0.118551
1.746,-0.133489
1.74625,-0.142128
1.7465,-0.157027
1.74675,-0.161291
1.747,-0.174435
1.74725,-0.171155
1.7475,-0.176968
1.74775,-0.1759
1.748,-0.160985
1.74825,-0.15796
1.7485,-0.139724
1.74875,-0.11807
1.749,-0.0988322
1.74925,-0.0786135
1.7495,-0.0514803
1.74975,-0.0254638
1.75,0.010149
1.75025,0.0320077
1.7505,0.0643449
1.75075,0.0840195
1.751,0.115714
1.75125,0.13794
1.7515,0.151069
1.75175,0.171068
1.752,0.175613
1.75225,0.184793
1.7525,0.188107
1.75275,0.187536
1.753,0.184257
1.75325,0.183094
1.7535,0.167555
1.75375,0.160877
1.754,0.144466
1.75425,0.136661
1.7545,0.120052
1.75475,0.0994797
1.755,0.0940864
1.75525,0.0796879
1.7555,0.0742807
1.75575,0.061674
1.756,0.0577107
1.75625,0.0526773
1.7565,0.0584998
1.75675,0.0647923
1.757,0.0658271
1.75725,0.0741849
1.7575,0.0881543
1.75775,0.100604
1.758,0.12044
1.75825,0.126706
1.7585,0.148353
1.75875,0.158571
1.759,0.169933
1.75925,0.178409
1.7595,0.185142
1.75975,0.185386
1.76,0.185797
1.76025,0.187383
1.7605,0.18305
1.76075,0.164025
1.761,0.148901
1.76125,0.134918
1.7615,0.113358
1.76175,0.0915092
1.762,0.0592616
1.76225,0.0356475
1.7625,0.00614996
1.76275,-0.0268506
1.763,-0.0449296
1.76325,-0.0792915
1.7635,-0.101219
1.76375,-0.125119
1.764,-0.137709
1.76425,-0.154802
1.7645,-0.163571
1.76475,-0.174578
1.765,-0.179942
1.76525,-0.174101
1.7655,-0.177912
1.76575,-0.163309
1.766,-0.158882
1.76625,-0.147795
1.7665,-0.133881
1.76675,-0.116752
1.767,-0.103547
1.76725,-0.0938833
1.7675,-0.0763407
1.76775,-0.0699577
1.768,-0.0541449
1.76825,-0.0500451
1.7685,-0.0420966
1.76875,-0.0441336
1.769,-0.0481174
1.76925,-0.0548388
1.7695,-0.0600084
1.76975,-0.0660219
1.77,-0.0764211
1.77025,-0.0871992
1.7705,-0.105621
1.77075,-0.118603
1.771,-0.136547
1.77125,-0.143745
1.7715,-0.157864
1.77175,-0.167523
1.772,-0.175053
1.77225,-0.17763
1.7725,-0.179294
1.77275,-0.177297
1.773,-0.163615
1.77325,-0.154231
1.7735,-0.140839
1.77375,-0.124727
1.774,-0.0971446
1.77425,-0.0759431
1.7745,-0.0472038
1.77475,-0.0219721
1.775,0.00277037
1.77525,0.0364155
1.7755,0.0611874
1.77575,0.0896032
1.776,0.110524
1.77625,0.135606
1.7765,0.149519
1.77675,0.161412
1.777,0.175647
1.77725,0.188981
1.7775,0.186315
1.77775,0.190906
1.778,0.182956
1.77825,0.17456
1.7785,0.165635
1.77875,0.159762
1.779,0.141131
1.77925,0.130122
1.7795,0.116533
1.77975,0.101109
1.78,0.086614
1.78025,0.0744947
1.7805,0.0689302
1.78075,0.0565746
1.781,0.0561209
1.78125,0.0562882
1.7815,0.0524821
1.78175,0.0618195
1.782,0.0678798
1.78225,0.072569
1.7825,0.0836827
1.78275,0.099431
1.783,0.1178
1.78325,0.130681
1.7835,0.14255
1.78375,0.154109
1.784,0.172738
1.78425,0.179949
1.7845,0.181788
1.78475,0.190554
1.785,0.185908
1.78525,0.179841
1.7855,0.175304
1.78575,0.164744
1.786,0.147207
1.78625,0.128839
1.7865,0.106926
1.78675,0.0890041
1.787,0.0636761
1.78725,0.0353583
1.7875,0.00420991
1.78775,-0.0248817
1.788,-0.0554053
1.78825,-0.0794276
1.7885,-0.105663
1.78875,-0.124182
1.789,-0.1453
1.78925,-0.152912
1.7895,-0.165654
1.78975,-0.171848
1.79,-0.176647
1.79025,-0.17765
1.7905,-0.176122
1.79075,-0.168212
1.791,-0.158793
1.79125,-0.146298
1.7915,-0.136743
1.79175,-0.119154
1.792,-0.107864
1.79225,-0.0962977
1.7925,-0.0767138
1.79275,-0.0679634
1.793,-0.0590567
1.79325,-0.0563839
1.7935,-0.0495688
1.79375,-0.0439107
1.794,-0.04286
1.79425,-0.055381
1.7945,-0.0579844
1.79475,-0.0633062
1.795,-0.0794086
1.79525,-0.0908627
1.7955,-0.109917
1.79575,-0.121818
1.796,-0.131555
1.79625,-0.147993
1.7965,-0.157953
1.79675,-0.169497
1.797,-0.171002
1.79725,-0.179135
1.7975,-0.175956
1.79775,-0.178024
1.798,-0.166153
1.79825,-0.157531
1.7985,-0.145916
1.79875,-0.122222
1.799,-0.101336
1.79925,-0.0749684
1.7995,-0.0542013
1.79975,-0.0243779
1.8,0.00269203
1.80025,0.0356489
1.8005,0.0636325
1.80075,0.0827583
1.801,0.112753
1.80125,0.13229
1.8015,0.146997
1.80175,0.166284
1.802,0.180824
1.80225,0.181368
1.8025,0.185093
1.80275,0.191994
1.803,0.188582
1.80325,0.176351
1.8035,0.169291
1.80375,0.159003
1.804,0.147843
1.80425,0.128922
1.8045,0.119095
1.80475,0.104714
1.805,0.0858659
1.80525,0.0762394
1.8055,0.0625125
1.80575,0.0582877
1.806,0.0578427
1.80625,0.0540198
1.8065,0.0574335
1.80675,0.05924
1.807,0.0691091
1.80725,0.077545
1.8075,0.0867727
1.80775,0.0985673
1.808,0.119302
1.80825,0.127392
1.8085,0.144911
1.80875,0.158402
1.809,0.171602
1.80925,0.176883
1.8095,0.179072
1.80975,0.184841
1.81,0.186292
1.81025,0.188776
1.8105,0.175572
1.81075,0.169183
1.811,0.147713
1.81125,0.12749
1.8115,0.107987
1.81175,0.0852093
1.812,0.0593531
1.81225,0.0330927
1.8125,0.00778226
1.81275,-0.0277428
1.813,-0.0545206
1.81325,-0.0759085
1.8135,-0.0996753
1.81375,-0.121787
1.814,-0.140036
1.81425,-0.153766
1.8145,-0.16719
1.81475,-0.173596
1.815,-0.176444
1.81525,-0.176331
1.8155,-0.174038
1.81575,-0.173589
1.816,-0.160914
1.81625,-0.145435
1.8165,-0.139117
1.81675,-0.119157
1.817,-0.108649
1.81725,-0.091924
1.8175,-0.0781409
1.81775,-0.0711437
1.818,-0.0619928
1.81825,-0.0503652
1.8185,-0.0510406
1.81875,-0.0503574
1.819,-0.0443985
1.81925,-0.047097
1.8195,-0.0631784
1.81975,-0.0725935
1.82,-0.0764619
1.82025,-0.0948914
1.8205,-0.101886
1.82075,-0.125069
1.821,-0.134283
1.82125,-0.145039
1.8215,-0.159741
1.82175,-0.167816
1.822,-0.173044
1.82225,-0.176537
1.8225,-0.17764
1.82275,-0.178488
1.823,-0.164634
1.82325,-0.151722
1.8235,-0.14624
1.82375,-0.123583
1.824,-0.103614
1.82425,-0.0799841
1.8245,-0.0539289
1.82475,-0.0254246
1.825,0.00534151
1.82525,0.0351723
1.8255,0.0586059
1.82575,0.0877512
1.826,0.111935
1.82625,0.12957
1.8265,0.149709
1.82675,0.167801
1.827,0.177619
1.82725,0.188246
1.8275,0.188691
1.82775,0.185761
1.828,0.185626
1.82825,0.179815
1.8285,0.166498
1.82875,0.15378
1.829,0.144251
1.82925,0.132575
1.8295,0.112639
1.82975,0.100721
1.83,0.0920009
1.83025,0.0732957
1.8305,0.0643454
1.83075,0.0592592
1.831,0.0599492
1.83125,0.0546783
1.8315,0.0603499
1.83175,0.0587626
1.832,0.0683653
1.83225,0.0798748
1.8325,0.0911556
1.83275,0.10294
1.833,0.113828
1.83325,0.127206
1.8335,0.14133
1.83375,0.159766
1.834,0.167927
1.83425,0.175457
1.8345,0.18488
1.83475,0.191934
1.835,0.183764
1.83525,0.186149
1.8355,0.17538
1.83575,0.165841
1.836,0.145871
1.83625,0.133452
1.8365,0.108001
1.83675,0.0867057
1.837,0.0601967
1.83725,0.0327765
1.8375,0.000893511
1.83775,-0.0239394
1.838,-0.0526828
1.83825,-0.0760615
1.8385,-0.0992158
1.83875,-0.120703
1.839,-0.143468
1.83925,-0.160234
1.8395,-0.171925
1.83975,-0.173624
1.84,-0.17913
1.84025,-0.180266
1.8405,-0.171862
1.84075,-0.168851
1.841,-0.155073
1.84125,-0.146098
1.8415,-0.134612
1.84175,-0.116289
1.842,-0.108457
1.84225,-0.096552
1.8425,-0.07523
1.84275,-0.0706445
1.843,-0.0591246
1.84325,-0.0547905
1.8435,-0.0476164
1.84375,-0.0410777
1.844,-0.0457272
1.84425,-0.0461639
1.8445,-0.055953
1.84475,-0.0714679
1.845,-0.0762499
1.84525,-0.0919553
1.8455,-0.105203
1.84575,-0.116018
1.846,-0.13385
1.84625,-0.143702
1.8465,-0.16301
1.84675,-0.170812
1.847,-0.179147
1.84725,-0.18192
1.8475,-0.174648
1.84775,-0.169885
1.848,-0.169027
1.84825,-0.156169
1.8485,-0.13864
1.84875,-0.123252
1.849,-0.103414
1.84925,-0.0719692
1.8495,-0.0540013
1.84975,-0.0208123
1.85,0.00196148
1.85025,0.0337491
1.8505,0.0578614
1.85075,0.0897668
1.851,0.109208
1.85125,0.135332
1.8515,0.150229
1.85175,0.160929
1.852,0.181932
1.85225,0.189503
1.8525,0.191024
1.85275,0.187585
1.853,0.184426
1.85325,0.182153
1.8535,0.170479
1.85375,0.160539
1.854,0.148966
1.85425,0.134457
1.8545,0.113727
1.85475,0.103505
1.855,0.0864728
1.85525,0.0798181
1.8555,0.0670424
1.85575,0.0644376
1.856,0.0556066
1.85625,0.0594847
1.8565,0.0536636
1.85675,0.0593318
1.857,0.0708971
1.85725,0.0728607
1.8575,0.0846506
1.85775,0.103436
1.858,0.115489
1.85825,0.127584
1.8585,0.140548
1.85875,0.154763
1.859,0.168908
1.85925,0.179981
1.8595,0.186832
1.85975,0.187478
1.86,0.188982
1.86025,0.183552
1.8605,0.175964
1.86075,0.166902
1.861,0.146621
1.86125,0.129133
1.8615,0.108369
1.86175,0.0912649
1.862,0.0649398
1.86225,0.032674
1.8625,0.00215093
1.86275,-0.0254883
1.863,-0.0544955
1.86325,-0.081608
1.8635,-0.103526
1.86375,-0.119826
1.864,-0.143515
1.86425,-0.154725
1.8645,-0.165954
1.86475,-0.175218
1.865,-0.173484
1.86525,-0.180513
1.8655,-0.170365
1.86575,-0.169434
1.866,-0.157582
1.86625,-0.142857
1.8665,-0.133357
1.86675,-0.118192
1.867,-0.108392
1.86725,-0.0921684
1.8675,-0.07572
1.86775,-0.0635703
1.868,-0.0564394
1.86825,-0.0537588
1.8685,-0.0430288
1.86875,-0.0486987
1.869,-0.0419986
1.86925,-0.0556232
1.8695,-0.0617972
1.86975,-0.0647674
1.87,-0.0753623
1.87025,-0.0946467
1.8705,-0.108721
1.87075,-0.124649
1.871,-0.135342
1.87125,-0.149239
1.8715,-0.159347
1.87175,-0.165651
1.872,-0.178292
1.87225,-0.178514
1.8725,-0.176138
1.87275,-0.174325
1.873,-0.168236
1.87325,-0.156013
1.8735,-0.142474
1.87375,-0.124418
1.874,-0.103146
1.87425,-0.0785471
1.8745,-0.0522016
1.87475,-0.0196848
1.875,0.00413054
1.87525,0.0371328
1.8755,0.0650387
1.87575,0.0913469
1.876,0.108208
1.87625,0.136246
1.8765,0.151908
1.87675,0.168023
1.877,0.174662
1.87725,0.181563
1.8775,0.192651
1.87775,0.190026
1.878,0.185073
1.87825,0.177369
1.8785,0.166847
1.87875,0.153752
1.879,0.140963
1.87925,0.128116
1.8795,0.116521
1.87975,0.103296
1.88,0.0932848
1.88025,0.0732639
1.8805,0.069448
1.88075,0.0609707
1.881,0.0516683
1.88125,0.0570638
1.8815,0.0583527
1.88175,0.060446
1.882,0.0677285
1.88225,0.0727534
1.8825,0.0841012
1.88275,0.0980187
1.883,0.116063
1.88325,0.12597
1.8835,0.14703
1.88375,0.154029
1.884,0.170408
1.88425,0.175194
1.8845,0.181046
1.88475,0.184843
1.885,0.188306
1.88525,0.184221
1.8855,0.180497
1.88575,0.163723
1.886,0.1507
1.88625,0.129897
1.8865,0.108917
1.88675,0.0908374
1.887,0.0612931
1.88725,0.0380511
1.8875,0.00807995
1.88775,-0.0240471
1.888,-0.0526466
1.88825,-0.0730295
1.8885,-0.0980769
1.88875,-0.123984
1.889,-0.143889
1.88925,-0.153728
1.8895,-0.167854
1.88975,-0.169495
1.89,-0.173324
1.89025,-0.182346
1.8905,-0.177643
1.89075,-0.172524
1.891,-0.161635
1.89125,-0.149242
1.8915,-0.13247
1.89175,-0.11812
1.892,-0.110635
1.89225,-0.0898436
1.8925,-0.0799104
1.89275,-0.0633829
1.893,-0.0547456
1.89325,-0.053722
1.8935,-0.0465266
1.89375,-0.0399169
1.894,-0.050891
1.89425,-0.053879
1.8945,-0.0546286
1.89475,-0.0665079
1.895,-0.0805882
1.89525,-0.0953525
1.8955,-0.101665
1.89575,-0.125013
1.896,-0.134011
1.89625,-0.148825
1.8965,-0.160841
1.89675,-0.166567
1.897,-0.172081
1.89725,-0.175088
1.8975,-0.180199
1.89775,-0.171235
1.898,-0.169732
1.89825,-0.150933
1.8985,-0.144648
1.89875,-0.126831
1.899,-0.104464
1.89925,-0.080458
1.8995,-0.0470834
1.89975,-0.0262272
1.9,0.000503987
1.90025,0.0312078
1.9005,0.0635258
1.90075,0.0871654
1.901,0.108956
1.90125,0.129496
1.9015,0.146528
1.90175,0.16334
1.902,0.176626
1.90225,0.186085
1.9025,0.190546
1.90275,0.184296
1.903,0.187294
1.90325,0.175518
1.9035,0.166006
1.90375,0.160321
1.904,0.141694
1.90425,0.128967
1.9045,0.11761
1.90475,0.105413
1.905,0.0843528
1.90525,0.0749354
1.9055,0.0668164
1.90575,0.0562176
1.906,0.0600403
1.90625,0.051132
1.9065,0.0560821
1.90675,0.0572731
1.907,0.0699061
1.90725,0.0775343
1.9075,0.0877827
1.90775,0.100559
1.908,0.120541
1.90825,0.132334
1.9085,0.143507
1.90875,0.15647
1.909,0.164634
1.90925,0.182327
1.9095,0.182688
1.90975,0.189947
1.91,0.186568
1.91025,0.180943
1.9105,0.173729
1.91075,0.167048
1.911,0.146616
1.91125,0.134697
1.9115,0.113166
1.91175,0.0835662
1.912,0.0639906
1.91225,0.0300831
1.9125,0.00658488
1.91275,-0.0264018
1.913,-0.0549268
1.91325,-0.0739681
1.9135,-0.0968845
1.91375,-0.126821
1.914,-0.136133
1.91425,-0.151653
1.9145,-0.164845
1.91475,-0.171836
1.915,-0.181749
1.91525,-0.180912
1.9155,-0.171863
1.91575,-0.164204
1.916,-0.155901
1.91625,-0.144403
1.9165,-0.132135
1.91675,-0.117567
1.917,-0.102685
1.91725,-0.0886338
1.9175,-0.0789981
1.91775,-0.0689133
1.918,-0.059433
1.91825,-0.0508595
1.9185,-0.0423121
1.91875,-0.0412466
1.919,-0.0429723
1.91925,-0.0463275
1.9195,-0.0624412
1.91975,-0.0634107
1.92,-0.0822562
1.92025,-0.0966194
1.9205,-0.106662
1.92075,-0.124967
1.921,-0.129421
1.92125,-0.148145
1.9215,-0.15779
1.92175,-0.172391
1.922,-0.178112
1.92225,-0.173668
1.9225,-0.178054
1.92275,-0.178746
1.923,-0.167508
1.92325,-0.153024
1.9235,-0.139403
1.92375,-0.117605
1.924,-0.104632
1.92425,-0.078029
1.9245,-0.0480901
1.92475,-0.0270641
1.925,0.00261776
1.92525,0.0289991
1.9255,0.0563648
1.92575,0.0904479
1.926,0.106446
1.92625,0.129891
1.9265,0.148455
1.92675,0.166257
1.927,0.172828
1.92725,0.180167
1.9275,0.189383
1.92775,0.186447
1.928,0.184858
1.92825,0.182405
1.9285,0.172454
1.92875,0.158905
1.929,0.144937
1.92925,0.13341
1.9295,0.113242
1.92975,0.102
1.93,0.0930189
1.93025,0.0806052
1.9305,0.0679202
1.93075,0.0566387
1.931,0.0596444
1.93125,0.0585539
1.9315,0.0540659
1.93175,0.0573693
1.932,0.0702522
1.93225,0.0784122
1.9325,0.0886729
1.93275,0.102686
1.933,0.111969
1.93325,0.133306
1.9335,0.139368
1.93375,0.158583
1.934,0.166565
1.93425,0.179188
1.9345,0.185063
1.93475,0.185883
1.935,0.18431
1.93525,0.185023
1.9355,0.176715
1.93575,0.161938
1.936,0.146744
1.93625,0.135058
1.9365,0.108453
1.93675,0.0868322
1.937,0.0565273
1.93725,0.0358591
1.9375,0.00575479
1.93775,-0.0258763
1.938,-0.0508459
1.93825,-0.0727718
1.9385,-0.100006
1.93875,-0.120798
1.939,-0.140964
1.93925,-0.15601
1.9395,-0.163413
1.93975,-0.171475
1.94,-0.174837
1.94025,-0.179658
1.9405,-0.175248
1.94075,-0.171241
1.941,-0.157266
1.94125,-0.150211
1.9415,-0.135449
1.94175,-0.116803
1.942,-0.105913
1.94225,-0.0929382
1.9425,-0.0778566
1.94275,-0.0678243
1.943,-0.0590001
1.94325,-0.05418
1.9435,-0.0436799
1.94375,-0.0447445
1.944,-0.0504394
1.94425,-0.0491983
1.9445,-0.0578903
1.94475,-0.0660524
1.945,-0.0811502
1.94525,-0.0932833
1.9455,-0.108769
1.94575,-0.115878
1.946,-0.135094
1.94625,-0.147805
1.9465,-0.161783
1.94675,-0.168678
1.947,-0.177652
1.94725,-0.182455
1.9475,-0.181517
1.94775,-0.171258
1.948,-0.16296
1.94825,-0.157081
1.9485,-0.141145
1.94875,-0.117961
1.949,-0.101883
1.94925,-0.0780204
1.9495,-0.0537077
1.94975,-0.0258904
1.95,0.00807636
1.95025,0.0368068
1.9505,0.0576932
1.95075,0.0888934
1.951,0.107539
1.95125,0.12872
1.9515,0.153355
1.95175,0.163146
1.952,0.17804
1.95225,0.180762
1.9525,0.186087
1.95275,0.191305
1.953,0.187232
1.95325,0.174791
1.9535,0.171506
1.95375,0.162089
1.954,0.146953
1.95425,0.126711
1.9545,0.112681
1.95475,0.0979019
1.955,0.0925179
1.95525,0.0764617
1.9555,0.0634462
1.95575,0.0659626
1.956,0.0601096
1.95625,0.0540282
1.9565,0.061517
1.95675,0.0589359
1.957,0.0649369
1.95725,0.0826359
1.9575,0.091483
1.95775,0.107403
1.958,0.120993
1.95825,0.132756
1.9585,0.14275
1.95875,0.156434
1.959,0.174002
1.95925,0.177851
1.9595,0.186138
1.95975,0.187668
1.96,0.187703
1.96025,0.182842
1.9605,0.175185
1.96075,0.17181
1.961,0.154252
1.96125,0.136
1.9615,0.108228
1.96175,0.0872237
1.962,0.0660879
1.96225,0.0326385
1.9625,0.0033303
1.96275,-0.0209868
1.963,-0.0474938
1.96325,-0.07544
1.9635,-0.10387
1.96375,-0.12148
1.964,-0.136935
1.96425,-0.155708
1.9645,-0.169417
1.96475,-0.171263
1.965,-0.176019
1.96525,-0.177179
1.9655,-0.167768
1.96575,-0.170259
1.966,-0.161253
1.96625,-0.146765
1.9665,-0.136335
1.96675,-0.114748
1.967,-0.102483
1.96725,-0.0855441
1.9675,-0.0740008
1.96775,-0.0597796
1.968,-0.0593989
1.96825,-0.0500058
1.9685,-0.0481836
1.96875,-0.0402925
1.969,-0.0385691
1.96925,-0.0450689
1.9695,-0.0558138
1.96975,-0.0608501
1.97,-0.0709253
1.97025,-0.0872207
1.9705,-0.10705
1.97075,-0.111879
1.971,-0.128398
1.97125,-0.138613
1.9715,-0.15725
1.97175,-0.167363
1.972,-0.17402
1.97225,-0.169879
1.9725,-0.175006
1.97275,-0.16643
1.973,-0.161349
1.97325,-0.155233
1.9735,-0.133575
1.97375,-0.112676
1.974,-0.0965427
1.97425,-0.0723726
1.9745,-0.0497888
1.97475,-0.0133876
1.975,0.00648792
1.97525,0.0395367
1.9755,0.0669257
1.97575,0.0923077
1.976,0.119922
1.97625,0.139868
1.9765,0.154282
1.97675,0.17222
1.977,0.180603
1.97725,0.189685
1.9775,0.192568
1.97775,0.193987
1.978,0.194877
1.97825,0.187521
1.9785,0.174
1.97875,0.167917
1.979,0.152336
1.97925,0.141889
1.9795,0.125111
1.97975,0.113721
1.98,0.0935857
1.98025,0.0807472
1.9805,0.0756859
1.98075,0.0716016
1.981,0.0672264
1.98125,0.0634192
1.9815,0.0645099
1.98175,0.0662255
1.982,0.0741534
1.98225,0.0901304
1.9825,0.0941333
1.98275,0.113894
1.983,0.128842
1.98325,0.137981
1.9835,0.153558
1.98375,0.172376
1.984,0.17635
1.98425,0.189984
1.9845,0.194156
1.98475,0.203357
1.985,0.202047
1.98525,0.196659
1.9855,0.190976
1.98575,0.17642
1.986,0.159827
1.98625,0.148685
1.9865,0.12169
1.98675,0.0968128
1.987,0.0745093
1.98725,0.0449091
1.9875,0.0224307
1.98775,-0.00823436
1.988,-0.0365958
1.98825,-0.0620993
1.9885,-0.0859888
1.98875,-0.1076
1.989,-0.126379
1.98925,-0.142739
1.9895,-0.157348
1.98975,-0.157028
1.99,-0.166914
1.99025,-0.166797
1.9905,-0.159895
1.99075,-0.154238
1.991,-0.146887
1.99125,-0.134482
1.9915,-0.119815
1.99175,-0.107178
1.992,-0.0868353
1.99225,-0.0769054
1.9925,-0.0629358
1.99275,-0.0452041
1.993,-0.0413752
1.99325,-0.0366979
1.9935,-0.0284732
1.99375,-0.0291701
1.994,-0.0270436
1.99425,-0.0276758
1.9945,-0.0425276
1.99475,-0.0428809
1.995,-0.0578429
1.99525,-0.0760021
1.9955,-0.0808839
1.99575,-0.101184
1.996,-0.109869
1.99625,-0.125579
1.9965,-0.138416
1.99675,-0.148846
1.997,-0.153895
1.99725,-0.159554
1.9975,-0.153075
1.99775,-0.148127
1.998,-0.148045
1.99825,-0.135543
1.9985,-0.117084
1.99875,-0.0987732
1.999,-0.0726799
1.99925,-0.0538357
1.9995,-0.0234482
