Time (s),Channel 1 (V)
0,0.0282224
0.00025,0.0704136
0.0005,0.112015
0.00075,0.15051
0.001,0.179418
0.00125,0.201823
0.0015,0.213157
0.00175,0.218409
0.002,0.216644
0.00225,0.199958
0.0025,0.187419
0.00275,0.165902
0.003,0.146983
0.00325,0.13174
0.0035,0.107052
0.00375,0.0919064
0.004,0.0861378
0.00425,0.0924498
0.0045,0.096593
0.00475,0.101843
0.005,0.12236
0.00525,0.139782
0.0055,0.163446
0.00575,0.183617
0.006,0.202298
0.00625,0.222702
0.0065,0.228061
0.00675,0.225081
0.007,0.211174
0.00725,0.198205
0.0075,0.172222
0.00775,0.141415
0.008,0.100118
0.00825,0.0571849
0.0085,0.0133893
0.00875,-0.0199779
0.009,-0.0585317
0.00925,-0.0898877
0.0095,-0.110153
0.00975,-0.12548
0.01,-0.131254
0.01025,-0.130375
0.0105,-0.11849
0.01075,-0.112189
0.011,-0.0838522
0.01125,-0.0702823
0.0115,-0.0467465
0.01175,-0.0286458
0.012,-0.0120321
0.01225,0.00417867
0.0125,0.00274606
0.01275,-0.00342556
0.013,-0.00664631
0.01325,-0.0211342
0.0135,-0.0438636
0.01375,-0.0619779
0.014,-0.0792392
0.01425,-0.102684
0.0145,-0.112799
0.01475,-0.126465
0.015,-0.123345
0.01525,-0.119757
0.0155,-0.101321
0.01575,-0.0767998
0.016,-0.0429564
0.01625,-0.0101758
0.0165,0.035983
0.01675,0.0796594
0.017,0.119473
0.01725,0.160425
0.0175,0.197312
0.01775,0.223715
0.018,0.24061
0.01825,0.246205
0.0185,0.253282
0.01875,0.243984
0.019,0.234849
0.01925,0.218346
0.0195,0.198171
0.01975,0.172268
0.02,0.154488
0.02025,0.143919
0.0205,0.129077
0.02075,0.128458
0.021,0.129529
0.02125,0.129962
0.0215,0.148891
0.02175,0.168408
0.022,0.188899
0.02225,0.21409
0.0225,0.236275
0.02275,0.245899
0.023,0.26095
0.02325,0.269942
0.0235,0.263705
0.02375,0.254131
0.024,0.23075
0.02425,0.200607
0.0245,0.170175
0.02475,0.125556
0.025,0.0912429
0.02525,0.0455302
0.0255,0.00460716
0.02575,-0.0229607
0.026,-0.0599695
0.02625,-0.0809417
0.0265,-0.0908048
0.02675,-0.0899173
0.027,-0.0912312
0.02725,-0.0750849
0.0275,-0.0551354
0.02775,-0.0341181
0.028,-0.0157746
0.02825,0.00971717
0.0285,0.0291929
0.02875,0.0430168
0.029,0.0459869
0.02925,0.0477253
0.0295,0.0495431
0.02975,0.0336167
0.03,0.0188859
0.03025,0.000743497
0.0305,-0.0167639
0.03075,-0.0440114
0.031,-0.0554744
0.03125,-0.0711495
0.0315,-0.0745054
0.03175,-0.0715725
0.032,-0.0590154
0.03225,-0.0417307
0.0325,-0.0114235
0.03275,0.0160337
0.033,0.0612504
0.03325,0.104012
0.0335,0.144371
0.03375,0.184297
0.034,0.222991
0.03425,0.261006
0.0345,0.279315
0.03475,0.300155
0.035,0.302787
0.03525,0.309796
0.0355,0.297068
0.03575,0.281211
0.036,0.263075
0.03625,0.250652
0.0365,0.224955
0.03675,0.205698
0.037,0.198556
0.03725,0.189972
0.0375,0.179825
0.03775,0.183166
0.038,0.195605
0.03825,0.213871
0.0385,0.230613
0.03875,0.257754
0.039,0.278568
0.03925,0.299607
0.0395,0.315227
0.03975,0.320868
0.04,0.332059
0.04025,0.320496
0.0405,0.303246
0.04075,0.283096
0.041,0.2561
0.04125,0.219721
0.0415,0.182771
0.04175,0.13824
0.042,0.0924175
0.04225,0.0649487
0.0425,0.0281578
0.04275,0.00197913
0.043,-0.0124669
0.04325,-0.0196533
0.0435,-0.0184019
0.04375,-0.014974
0.044,-0.000422607
0.04425,0.0130434
0.0445,0.0404244
0.04475,0.0619013
0.045,0.0880089
0.04525,0.103529
0.0455,0.11184
0.04575,0.11715
0.046,0.12194
0.04625,0.116166
0.0465,0.100901
0.04675,0.0897737
0.047,0.0634246
0.04725,0.04758
0.0475,0.0268757
0.04775,0.00790147
0.048,0.00337342
0.04825,0.00376225
0.0485,0.00861706
0.04875,0.020117
0.049,0.0456824
0.04925,0.0724328
0.0495,0.112532
0.04975,0.153487
0.05,0.18859
0.05025,0.240249
0.0505,0.278867
0.05075,0.318526
0.051,0.344747
0.05125,0.370498
0.0515,0.384948
0.05175,0.382819
0.052,0.382249
0.05225,0.377834
0.0525,0.36042
0.05275,0.34378
0.053,0.320654
0.05325,0.302571
0.0535,0.285588
0.05375,0.274058
0.054,0.266549
0.05425,0.263482
0.0545,0.276489
0.05475,0.283523
0.055,0.304242
0.05525,0.325843
0.0555,0.353809
0.05575,0.370609
0.056,0.39403
0.05625,0.406128
0.0565,0.414833
0.05675,0.414963
0.057,0.400002
0.05725,0.38401
0.0575,0.360298
0.05775,0.336011
0.058,0.290901
0.05825,0.254925
0.0585,0.214212
0.05875,0.171502
0.059,0.134737
0.05925,0.110526
0.0595,0.0879321
0.05975,0.074435
0.06,0.0682042
0.06025,0.075012
0.0605,0.079623
0.06075,0.0941537
0.061,0.12211
0.06125,0.141236
0.0615,0.15979
0.06175,0.185586
0.062,0.202438
0.06225,0.211356
0.0625,0.221246
0.06275,0.214489
0.063,0.20491
0.06325,0.196383
0.0635,0.172399
0.06375,0.156722
0.064,0.141344
0.06425,0.122202
0.0645,0.106391
0.06475,0.103871
0.065,0.0958687
0.06525,0.107076
0.0655,0.125122
0.06575,0.150143
0.066,0.182591
0.06625,0.221224
0.0665,0.268558
0.06675,0.304213
0.067,0.349443
0.06725,0.387841
0.0675,0.431736
0.06775,0.458985
0.068,0.478489
0.06825,0.490377
0.0685,0.487534
0.06875,0.484851
0.069,0.476777
0.06925,0.45767
0.0695,0.441088
0.06975,0.418314
0.07,0.401665
0.07025,0.388268
0.0705,0.380741
0.07075,0.371017
0.071,0.376514
0.07125,0.384139
0.0715,0.395092
0.07175,0.422186
0.072,0.437166
0.07225,0.463068
0.0725,0.482433
0.07275,0.505251
0.073,0.517312
0.07325,0.519346
0.0735,0.518685
0.07375,0.510982
0.074,0.490719
0.07425,0.468088
0.0745,0.431021
0.07475,0.389186
0.075,0.347674
0.07525,0.308421
0.0755,0.270263
0.07575,0.241784
0.076,0.215374
0.07625,0.189458
0.0765,0.178394
0.07675,0.180894
0.077,0.189663
0.07725,0.203825
0.0775,0.212614
0.07775,0.241357
0.078,0.26274
0.07825,0.280043
0.0785,0.302474
0.07875,0.315949
0.079,0.333085
0.07925,0.328531
0.0795,0.330469
0.07975,0.318292
0.08,0.306289
0.08025,0.29022
0.0805,0.267226
0.08075,0.244837
0.081,0.232735
0.08125,0.224756
0.0815,0.214576
0.08175,0.223348
0.082,0.233922
0.08225,0.252632
0.0825,0.274752
0.08275,0.314835
0.083,0.35408
0.08325,0.392464
0.0835,0.443786
0.08375,0.483032
0.084,0.527423
0.08425,0.553378
0.0845,0.57973
0.08475,0.595773
0.085,0.605811
0.08525,0.603433
0.0855,0.600213
0.08575,0.592698
0.086,0.568373
0.08625,0.548075
0.0865,0.528207
0.08675,0.517601
0.087,0.500026
0.08725,0.496277
0.0875,0.48766
0.08775,0.498037
0.088,0.507893
0.08825,0.527432
0.0885,0.544708
0.08875,0.567506
0.089,0.593775
0.08925,0.611288
0.0895,0.633587
0.08975,0.639677
0.09,0.649116
0.09025,0.637182
0.0905,0.620914
0.09075,0.600979
0.091,0.577864
0.09125,0.539691
0.0915,0.50421
0.09175,0.463317
0.092,0.423881
0.09225,0.381864
0.0925,0.355121
0.09275,0.331909
0.093,0.314911
0.09325,0.304561
0.0935,0.305578
0.09375,0.312658
0.094,0.326423
0.09425,0.342794
0.0945,0.370795
0.09475,0.386934
0.095,0.414769
0.09525,0.433643
0.0955,0.447239
0.09575,0.448928
0.096,0.452888
0.09625,0.446643
0.0965,0.43496
0.09675,0.421913
0.097,0.399793
0.09725,0.381358
0.0975,0.366784
0.09775,0.350387
0.098,0.336946
0.09825,0.339101
0.0985,0.34675
0.09875,0.3615
0.099,0.379446
0.09925,0.413256
0.0995,0.449863
0.09975,0.489234
0.1,0.532888
0.10025,0.574255
0.1005,0.614666
0.10075,0.651926
0.101,0.688401
0.10125,0.707847
0.1015,0.726958
0.10175,0.726811
0.102,0.723243
0.10225,0.71878
0.1025,0.70362
0.10275,0.68263
0.103,0.665486
0.10325,0.641627
0.1035,0.627706
0.10375,0.615279
0.104,0.613313
0.10425,0.615782
0.1045,0.61675
0.10475,0.628536
0.105,0.653605
0.10525,0.668712
0.1055,0.694413
0.10575,0.715275
0.106,0.735429
0.10625,0.749539
0.1065,0.760764
0.10675,0.7549
0.107,0.75203
0.10725,0.733772
0.1075,0.708329
0.10775,0.679501
0.108,0.638914
0.10825,0.600876
0.1085,0.556942
0.10875,0.525409
0.109,0.485493
0.10925,0.454425
0.1095,0.436391
0.10975,0.416028
0.11,0.409137
0.11025,0.41557
0.1105,0.422278
0.11075,0.4395
0.111,0.458813
0.11125,0.482719
0.1115,0.50664
0.11175,0.52523
0.112,0.542644
0.11225,0.55912
0.1125,0.565016
0.11275,0.562677
0.113,0.548863
0.11325,0.542296
0.1135,0.517824
0.11375,0.498314
0.114,0.483819
0.11425,0.462264
0.1145,0.450645
0.11475,0.440992
0.115,0.444264
0.11525,0.447139
0.1155,0.46704
0.11575,0.48944
0.116,0.525665
0.11625,0.558279
0.1165,0.600673
0.11675,0.644238
0.117,0.695845
0.11725,0.731448
0.1175,0.769312
0.11775,0.793946
0.118,0.817416
0.11825,0.825137
0.1185,0.824406
0.11875,0.819349
0.119,0.813127
0.11925,0.78769
0.1195,0.771578
0.11975,0.75708
0.12,0.737299
0.12025,0.715627
0.1205,0.707606
0.12075,0.70257
0.121,0.703976
0.12125,0.716508
0.1215,0.72623
0.12175,0.753184
0.122,0.772506
0.12225,0.788716
0.1225,0.816263
0.12275,0.834827
0.123,0.841103
0.12325,0.8438
0.1235,0.84528
0.12375,0.833896
0.124,0.813996
0.12425,0.787781
0.1245,0.747549
0.12475,0.713497
0.125,0.675715
0.12525,0.632317
0.1255,0.587514
0.12575,0.561306
0.126,0.530812
0.12625,0.507926
0.1265,0.495306
0.12675,0.493335
0.127,0.500486
0.12725,0.51382
0.1275,0.5229
0.12775,0.549065
0.128,0.571713
0.12825,0.592714
0.1285,0.609084
0.12875,0.623265
0.129,0.637216
0.12925,0.633326
0.1295,0.625223
0.12975,0.619469
0.13,0.602565
0.13025,0.586777
0.1305,0.558503
0.13075,0.54039
0.131,0.524942
0.13125,0.509325
0.1315,0.508894
0.13175,0.511374
0.132,0.517736
0.13225,0.542031
0.1325,0.565445
0.13275,0.599472
0.133,0.642611
0.13325,0.68021
0.1335,0.718875
0.13375,0.764048
0.134,0.802472
0.13425,0.837122
0.1345,0.85262
0.13475,0.875825
0.135,0.883747
0.13525,0.881242
0.1355,0.869957
0.13575,0.858591
0.136,0.842332
0.13625,0.817684
0.1365,0.794317
0.13675,0.777724
0.137,0.760512
0.13725,0.754614
0.1375,0.747632
0.13775,0.7496
0.138,0.766859
0.13825,0.775917
0.1385,0.794033
0.13875,0.814809
0.139,0.837747
0.13925,0.862136
0.1395,0.877606
0.13975,0.881826
0.14,0.881618
0.14025,0.881977
0.1405,0.865175
0.14075,0.83638
0.141,0.810132
0.14125,0.774575
0.1415,0.734731
0.14175,0.68873
0.142,0.643351
0.14225,0.607751
0.1425,0.575022
0.14275,0.548048
0.143,0.532033
0.14325,0.515479
0.1435,0.519104
0.14375,0.528201
0.144,0.537824
0.14425,0.551429
0.1445,0.575589
0.14475,0.594085
0.145,0.620735
0.14525,0.637735
0.1455,0.640586
0.14575,0.648062
0.146,0.653356
0.14625,0.642816
0.1465,0.629922
0.14675,0.60742
0.147,0.58751
0.14725,0.568547
0.1475,0.548592
0.14775,0.528305
0.148,0.514423
0.14825,0.511006
0.1485,0.517917
0.14875,0.533555
0.149,0.549057
0.14925,0.578811
0.1495,0.617635
0.14975,0.647405
0.15,0.695135
0.15025,0.731664
0.1505,0.778746
0.15075,0.803802
0.151,0.839501
0.15125,0.860908
0.1515,0.868477
0.15175,0.87051
0.152,0.870482
0.15225,0.861462
0.1525,0.835424
0.15275,0.819688
0.153,0.793999
0.15325,0.777234
0.1535,0.760872
0.15375,0.738438
0.154,0.729921
0.15425,0.736607
0.1545,0.738368
0.15475,0.751119
0.155,0.759898
0.15525,0.778279
0.1555,0.800035
0.15575,0.820651
0.156,0.835492
0.15625,0.851973
0.1565,0.852257
0.15675,0.855765
0.157,0.84098
0.15725,0.822754
0.1575,0.799898
0.15775,0.763351
0.158,0.72333
0.15825,0.675685
0.1585,0.63322
0.15875,0.59444
0.159,0.559035
0.15925,0.522306
0.1595,0.499526
0.15975,0.486392
0.16,0.479803
0.16025,0.472224
0.1605,0.48284
0.16075,0.499561
0.161,0.513921
0.16125,0.529133
0.1615,0.558216
0.16175,0.575998
0.162,0.586189
0.16225,0.59471
0.1625,0.594935
0.16275,0.591147
0.163,0.575842
0.16325,0.565645
0.1635,0.544086
0.16375,0.520245
0.164,0.499076
0.16425,0.478453
0.1645,0.45993
0.16475,0.450557
0.165,0.444288
0.16525,0.452679
0.1655,0.463324
0.16575,0.484608
0.166,0.514691
0.16625,0.550157
0.1665,0.594321
0.16675,0.636417
0.167,0.676721
0.16725,0.707267
0.1675,0.742007
0.16775,0.761563
0.168,0.7792
0.16825,0.795276
0.1685,0.785937
0.16875,0.786427
0.169,0.765155
0.16925,0.751316
0.1695,0.726521
0.16975,0.704586
0.17,0.678433
0.17025,0.659223
0.1705,0.652333
0.17075,0.641726
0.171,0.638741
0.17125,0.641744
0.1715,0.652824
0.17175,0.67466
0.172,0.691887
0.17225,0.706881
0.1725,0.726483
0.17275,0.744815
0.173,0.750564
0.17325,0.75815
0.1735,0.74933
0.17375,0.73895
0.174,0.706233
0.17425,0.67884
0.1745,0.638788
0.17475,0.597437
0.175,0.552926
0.17525,0.51105
0.1755,0.473386
0.17575,0.435534
0.176,0.400172
0.17625,0.383618
0.1765,0.360561
0.17675,0.360642
0.177,0.357863
0.17725,0.370609
0.1775,0.378704
0.17775,0.400875
0.178,0.419911
0.17825,0.432683
0.1785,0.457324
0.17875,0.461979
0.179,0.466344
0.17925,0.471608
0.1795,0.463208
0.17975,0.444224
0.18,0.428033
0.18025,0.40921
0.1805,0.383952
0.18075,0.358222
0.181,0.340054
0.18125,0.326089
0.1815,0.311277
0.18175,0.31451
0.182,0.322205
0.18225,0.331195
0.1825,0.357305
0.18275,0.388326
0.183,0.42923
0.18325,0.468785
0.1835,0.500091
0.18375,0.544648
0.184,0.578818
0.18425,0.602836
0.1845,0.622355
0.18475,0.637321
0.185,0.63947
0.18525,0.636027
0.1855,0.632178
0.18575,0.608263
0.186,0.592108
0.18625,0.561867
0.1865,0.536755
0.18675,0.523801
0.187,0.503211
0.18725,0.48962
0.1875,0.482163
0.18775,0.481809
0.188,0.487943
0.18825,0.505386
0.1885,0.517534
0.18875,0.539109
0.189,0.556721
0.18925,0.574057
0.1895,0.584406
0.18975,0.5854
0.19,0.588814
0.19025,0.579332
0.1905,0.563687
0.19075,0.536535
0.191,0.501894
0.19125,0.45931
0.1915,0.413308
0.19175,0.376361
0.192,0.327034
0.19225,0.288977
0.1925,0.252003
0.19275,0.224202
0.193,0.195726
0.19325,0.190648
0.1935,0.186264
0.19375,0.188728
0.194,0.199841
0.19425,0.207401
0.1945,0.223922
0.19475,0.24141
0.195,0.261572
0.19525,0.277729
0.1955,0.285548
0.19575,0.28793
0.196,0.287962
0.19625,0.268559
0.1965,0.259228
0.19675,0.234961
0.197,0.216587
0.19725,0.189279
0.1975,0.159997
0.19775,0.148806
0.198,0.132369
0.19825,0.12152
0.1985,0.122559
0.19875,0.136195
0.199,0.151158
0.19925,0.175929
0.1995,0.21246
0.19975,0.246852
0.2,0.287565
0.20025,0.321348
0.2005,0.365896
0.20075,0.395821
0.201,0.421418
0.20125,0.434786
0.2015,0.447309
0.20175,0.443894
0.202,0.440197
0.20225,0.42451
0.2025,0.402522
0.20275,0.380429
0.203,0.355278
0.20325,0.335719
0.2035,0.318206
0.20375,0.299906
0.204,0.283773
0.20425,0.278815
0.2045,0.2827
0.20475,0.297017
0.205,0.303427
0.20525,0.327236
0.2055,0.341221
0.20575,0.364454
0.206,0.376495
0.20625,0.383474
0.2065,0.387119
0.20675,0.385777
0.207,0.373078
0.20725,0.344471
0.2075,0.315514
0.20775,0.28275
0.208,0.240905
0.20825,0.199376
0.2085,0.149484
0.20875,0.107464
0.209,0.0695767
0.20925,0.0362704
0.2095,0.0107866
0.20975,-0.0155419
0.21,-0.0250413
0.21025,-0.0233434
0.2105,-0.0184977
0.21075,-0.00326607
0.211,0.00494816
0.21125,0.0218196
0.2115,0.0481757
0.21175,0.0557977
0.212,0.0769687
0.21225,0.0827287
0.2125,0.0781183
0.21275,0.0768821
0.213,0.0565055
0.21325,0.0460578
0.2135,0.0213295
0.21375,-0.00445674
0.214,-0.0263553
0.21425,-0.047824
0.2145,-0.0694724
0.21475,-0.0785335
0.215,-0.0905761
0.21525,-0.0824004
0.2155,-0.0670605
0.21575,-0.0500715
0.216,-0.0180056
0.21625,0.0124186
0.2165,0.0463117
0.21675,0.0925907
0.217,0.125344
0.21725,0.166785
0.2175,0.190737
0.21775,0.217494
0.218,0.232274
0.21825,2.43E-01
0.2185,0.23594
0.21875,0.225687
0.219,0.211581
0.21925,0.187597
0.2195,0.162905
0.21975,0.145055
0.22,0.120855
0.22025,0.0967102
0.2205,0.0899143
0.22075,0.0738254
0.221,0.072157
0.22125,0.0780827
0.2215,0.0942551
0.22175,0.102204
0.222,0.127815
0.22225,0.145571
0.2225,0.160401
0.22275,0.169896
0.223,0.184277
0.22325,0.183702
0.2235,0.179344
0.22375,0.155314
0.224,0.136267
0.22425,0.102716
0.2245,0.0606435
0.22475,0.0209974
0.225,-0.0220464
0.22525,-0.0675105
0.2255,-0.107748
0.22575,-0.147628
0.226,-0.177907
0.22625,-0.200962
0.2265,-0.218315
0.22675,-0.227788
0.227,-0.223192
0.22725,-0.211662
0.2275,-0.203287
0.22775,-0.181675
0.228,-0.167175
0.22825,-0.149411
0.2285,-0.13229
0.22875,-0.124098
0.229,-0.119297
0.22925,-0.115949
0.2295,-0.127889
0.22975,-0.144687
0.23,-0.166003
0.23025,-0.179302
0.2305,-0.204891
0.23075,-0.230427
0.231,-0.248999
0.23125,-0.265873
0.2315,-0.277333
0.23175,-0.274062
0.232,-0.270383
0.23225,-0.253359
0.2325,-0.232805
0.23275,-0.197373
0.233,-0.168688
0.23325,-0.121554
0.2335,-0.083359
0.23375,-0.0504082
0.234,-0.0151802
0.23425,0.0159502
0.2345,0.0331816
0.23475,0.0554571
0.235,0.0523821
0.23525,0.0551058
0.2355,0.0366067
0.23575,0.0260936
0.236,0.00285842
0.23625,-0.0260477
0.2365,-0.0432304
0.23675,-0.0682833
0.237,-0.0833606
0.23725,-0.0951212
0.2375,-0.103849
0.23775,-0.100071
0.238,-0.0924401
0.23825,-0.0786695
0.2385,-0.0663194
0.23875,-0.0440941
0.239,-0.0281373
0.23925,-0.0072048
0.2395,0.00163152
0.23975,0.00929615
0.24,0.00618911
0.24025,0.00566943
0.2405,-0.0202863
0.24075,-0.0413586
0.241,-0.0737754
0.24125,-0.110581
0.2415,-0.156878
0.24175,-0.197673
0.242,-0.248827
0.24225,-0.282745
0.2425,-0.319358
0.24275,-0.344631
0.243,-0.368977
0.24325,-0.384214
0.2435,-0.385191
0.24375,-0.375373
0.244,-0.37085
0.24425,-0.354445
0.2445,-0.330797
0.24475,-0.317379
0.245,-0.299123
0.24525,-0.280243
0.2455,-0.273966
0.24575,-0.266752
0.246,-0.272647
0.24625,-0.276199
0.2465,-0.29651
0.24675,-0.317071
0.247,-0.338588
0.24725,-0.355487
0.2475,-0.379863
0.24775,-0.402002
0.248,-0.409681
0.24825,-0.415203
0.2485,-0.410922
0.24875,-0.406201
0.249,-0.381069
0.24925,-0.354282
0.2495,-0.322507
0.24975,-0.281419
0.25,-0.240196
0.25025,-0.201095
0.2505,-0.162593
0.25075,-0.130833
0.251,-0.0998642
0.25125,-0.0860267
0.2515,-0.0708248
0.25175,-0.0736753
0.252,-0.0805882
0.25225,-0.0925445
0.2525,-0.106294
0.25275,-0.129429
0.253,-0.146936
0.25325,-0.169395
0.2535,-0.195684
0.25375,-0.200722
0.254,-0.218706
0.25425,-0.218904
0.2545,-0.215734
0.25475,-0.20539
0.255,-0.19146
0.25525,-0.170299
0.2555,-0.147813
0.25575,-0.132192
0.256,-0.108137
0.25625,-0.100734
0.2565,-0.0932048
0.25675,-0.100617
0.257,-0.102265
0.25725,-0.121151
0.2575,-0.153279
0.25775,-0.191539
0.258,-0.229647
0.25825,-0.270693
0.2585,-0.313782
0.25875,-0.350061
0.259,-0.386687
0.25925,-0.426681
0.2595,-0.445376
0.25975,-0.460449
0.26,-0.475085
0.26025,-0.475437
0.2605,-0.465382
0.26075,-0.445791
0.261,-0.428545
0.26125,-0.405274
0.2615,-0.386781
0.26175,-0.374777
0.262,-0.355103
0.26225,-0.350473
0.2625,-0.347847
0.26275,-0.347115
0.263,-0.354019
0.26325,-0.378559
0.2635,-0.395589
0.26375,-0.412562
0.264,-0.437025
0.26425,-0.461103
0.2645,-0.468123
0.26475,-0.482725
0.265,-0.483782
0.26525,-0.477703
0.2655,-0.456747
0.26575,-0.436699
0.266,-0.4024
0.26625,-0.371818
0.2665,-0.3309
0.26675,-0.28391
0.267,-0.241361
0.26725,-0.207352
0.2675,-0.175446
0.26775,-0.148838
0.268,-0.132315
0.26825,-0.123647
0.2685,-0.114412
0.26875,-0.127027
0.269,-0.13604
0.26925,-0.160657
0.2695,-0.18251
0.26975,-0.200283
0.27,-0.219405
0.27025,-0.231249
0.2705,-0.244112
0.27075,-0.251419
0.271,-0.248086
0.27125,-0.24147
0.2715,-0.228343
0.27175,-0.214894
0.272,-0.193278
0.27225,-0.166829
0.2725,-0.149708
0.27275,-0.129278
0.273,-0.12371
0.27325,-0.114202
0.2735,-0.122324
0.27375,-0.133433
0.274,-0.155448
0.27425,-0.185724
0.2745,-0.21817
0.27475,-0.252849
0.275,-0.302897
0.27525,-0.3371
0.2755,-0.383798
0.27575,-0.41269
0.276,-0.44693
0.27625,-0.459246
0.2765,-0.480223
0.27675,-0.481156
0.277,-0.471761
0.27725,-0.460217
0.2775,-0.445467
0.27775,-0.429513
0.278,-0.40114
0.27825,-0.382271
0.2785,-0.368456
0.27875,-0.355712
0.279,-0.34363
0.27925,-0.345248
0.2795,-0.342685
0.27975,-0.357484
0.28,-0.368357
0.28025,-0.394825
0.2805,-0.416787
0.28075,-0.434921
0.281,-0.446394
0.28125,-0.461878
0.2815,-0.467457
0.28175,-0.460852
0.282,-0.458687
0.28225,-0.433329
0.2825,-0.403853
0.28275,-0.378321
0.283,-0.333792
0.28325,-0.295536
0.2835,-0.247637
0.28375,-0.21073
0.284,-0.173693
0.28425,-0.136979
0.2845,-0.113308
0.28475,-0.0984931
0.285,-0.0903167
0.28525,-0.0859493
0.2855,-0.0965947
0.28575,-0.113336
0.286,-0.127454
0.28625,-0.148933
0.2865,-0.166499
0.28675,-0.188432
0.287,-0.198783
0.28725,-0.204551
0.2875,-0.212541
0.28775,-0.201839
0.288,-0.192094
0.28825,-0.178683
0.2885,-0.162997
0.28875,-0.132748
0.289,-0.118038
0.28925,-0.0928374
0.2895,-0.0819049
0.28975,-0.0675737
0.29,-0.0701824
0.29025,-0.0734277
0.2905,-0.0857458
0.29075,-0.110291
0.291,-0.140069
0.29125,-0.174512
0.2915,-0.210975
0.29175,-0.255888
0.292,-0.292271
0.29225,-0.33222
0.2925,-0.361157
0.29275,-0.385677
0.293,-0.405039
0.29325,-0.415762
0.2935,-0.417842
0.29375,-0.405568
0.294,-0.393722
0.29425,-0.376981
0.2945,-0.349524
0.29475,-0.331748
0.295,-0.30363
0.29525,-0.286747
0.2955,-0.275604
0.29575,-0.271488
0.296,-0.270841
0.29625,-0.274693
0.2965,-0.281282
0.29675,-0.298332
0.297,-0.31936
0.29725,-0.339554
0.2975,-0.358678
0.29775,-0.373345
0.298,-0.378666
0.29825,-0.383192
0.2985,-0.382284
0.29875,-0.367126
0.299,-0.346673
0.29925,-0.317131
0.2995,-0.275195
0.29975,-0.22961
0.3,-0.191397
0.30025,-0.149281
0.3005,-0.102152
0.30075,-0.0650663
0.301,-0.0406277
0.30125,-0.0182847
0.3015,0.0032797
0.30175,0.00156868
0.302,-0.00182384
0.30225,-0.00522452
0.3025,-0.0207202
0.30275,-0.0419743
0.303,-0.0583258
0.30325,-0.0739563
0.3035,-0.0926693
0.30375,-0.11017
0.304,-0.112092
0.30425,-0.109415
0.3045,-0.101937
0.30475,-0.0916514
0.305,-0.0719011
0.30525,-0.0463665
0.3055,-0.025511
0.30575,-0.00418004
0.306,0.01209
0.30625,0.0280106
0.3065,0.0386505
0.30675,0.0339669
0.307,0.0282017
0.30725,0.00899282
0.3075,-0.00805321
0.30775,-0.0406
0.308,-0.0751893
0.30825,-0.116914
0.3085,-0.156082
0.30875,-0.198541
0.309,-0.229061
0.30925,-0.267482
0.3095,-0.287225
0.30975,-0.295486
0.31,-0.301974
0.31025,-0.305246
0.3105,-0.287674
0.31075,-0.27795
0.311,-0.25112
0.31125,-0.23111
0.3115,-0.207812
0.31175,-0.186235
0.312,-0.165737
0.31225,-0.157384
0.3125,-0.147265
0.31275,-0.152524
0.313,-0.158097
0.31325,-0.171093
0.3135,-0.186949
0.31375,-0.215475
0.314,-0.232431
0.31425,-0.249227
0.3145,-0.263418
0.31475,-0.269762
0.315,-0.269803
0.31525,-0.253492
0.3155,-0.239473
0.31575,-0.219106
0.316,-0.186134
0.31625,-0.137937
0.3165,-0.105049
0.31675,-0.0536915
0.317,-0.0106238
0.31725,0.0248015
0.3175,0.0588503
0.31775,0.0932146
0.318,0.111421
0.31825,0.119041
0.3185,0.124549
0.31875,0.116893
0.319,0.111212
0.31925,0.0981523
0.3195,0.0784383
0.31975,0.0525581
0.32,0.034575
0.32025,0.0189475
0.3205,0.0151133
0.32075,0.00868067
0.321,0.00818914
0.32125,0.0218251
0.3215,0.035694
0.32175,0.0606806
0.322,0.0828817
0.32225,0.106074
0.3225,0.127632
0.32275,0.139012
0.323,0.152341
0.32325,0.162465
0.3235,0.155351
0.32375,0.152412
0.324,0.12739
0.32425,0.105408
0.3245,0.064945
0.32475,0.0285068
0.325,-0.00628526
0.32525,-0.0538113
0.3255,-0.0883148
0.32575,-0.121022
0.326,-0.152462
0.32625,-0.167448
0.3265,-0.176201
0.32675,-0.182549
0.327,-0.172909
0.32725,-0.160416
0.3275,-0.14803
0.32775,-0.118538
0.328,-0.101444
0.32825,-0.0723589
0.3285,-0.0618341
0.32875,-0.0410421
0.329,-0.028838
0.32925,-0.0328965
0.3295,-0.0355479
0.32975,-0.0395505
0.33,-0.0631049
0.33025,-0.0777688
0.3305,-0.0960025
0.33075,-0.115864
0.331,-0.136573
0.33125,-0.143682
0.3315,-0.152606
0.33175,-0.14418
0.332,-0.137173
0.33225,-0.110394
0.3325,-0.0808059
0.33275,-0.0469176
0.333,-0.0135349
0.33325,0.0370132
0.3335,0.0751359
0.33375,0.119799
0.334,0.161487
0.33425,0.190829
0.3345,0.216417
0.33475,0.23449
0.335,0.2403
0.33525,0.242129
0.3355,0.229116
0.33575,0.217907
0.336,0.199633
0.33625,0.184358
0.3365,0.162844
0.33675,0.144561
0.337,0.129418
0.33725,0.124284
0.3375,0.123219
0.33775,0.132107
0.338,0.136477
0.33825,0.157416
0.3385,0.170622
0.33875,0.201133
0.339,0.219282
0.33925,0.239873
0.3395,0.255257
0.33975,0.272026
0.34,0.271162
0.34025,0.265221
0.3405,0.253226
0.34075,0.225487
0.341,0.195994
0.34125,0.157297
0.3415,0.125786
0.34175,0.0780559
0.342,0.0446884
0.34225,0.00780696
0.3425,-0.0228634
0.34275,-0.0563695
0.343,-0.065414
0.34325,-0.0823975
0.3435,-0.0764217
0.34375,-0.0679495
0.344,-0.0593782
0.34425,-0.0363344
0.3445,-0.0135517
0.34475,0.0108697
0.345,0.0249457
0.34525,0.0488721
0.3455,0.0621704
0.34575,0.0671225
0.346,0.0688947
0.34625,0.0629744
0.3465,0.0461405
0.34675,0.0296606
0.347,0.00990784
0.34725,-0.0136717
0.3475,-0.0270634
0.34775,-0.0482108
0.348,-0.0521218
0.34825,-0.0611734
0.3485,-0.0576368
0.34875,-0.0369992
0.349,-0.0122492
0.34925,0.00877084
0.3495,0.0507618
0.34975,0.0885195
0.35,0.134438
0.35025,0.17311
0.3505,0.216641
0.35075,0.255982
0.351,0.284502
0.35125,0.307929
0.3515,0.313691
0.35175,0.321187
0.352,0.316109
0.35225,0.311194
0.3525,0.293513
0.35275,0.276187
0.353,0.249661
0.35325,0.228992
0.3535,0.211603
0.35375,0.202536
0.354,0.197723
0.35425,0.196835
0.3545,0.203397
0.35475,0.218161
0.355,0.234665
0.35525,0.257027
0.3555,0.275868
0.35575,0.295937
0.356,0.31886
0.35625,0.324332
0.3565,0.334295
0.35675,0.331439
0.357,0.325205
0.35725,0.306088
0.3575,0.281975
0.35775,0.251866
0.358,0.207468
0.35825,0.168314
0.3585,0.128735
0.35875,0.0836279
0.359,0.0533071
0.35925,0.0242653
0.3595,-0.00312525
0.35975,-0.0137989
0.36,-0.0236513
0.36025,-0.0175004
0.3605,-0.0103905
0.36075,0.00302963
0.361,0.0242457
0.36125,0.0474797
0.3615,0.0633391
0.36175,0.08378
0.362,0.104782
0.36225,0.10785
0.3625,0.110374
0.36275,0.112945
0.363,0.0982074
0.36325,0.0912346
0.3635,0.0644207
0.36375,0.0502431
0.364,0.0291572
0.36425,0.00424143
0.3645,-0.00704335
0.36475,-0.0143366
0.365,-0.0148586
0.36525,-0.0062831
0.3655,0.00487088
0.36575,0.0277685
0.366,0.0651616
0.36625,0.10238
0.3665,0.137151
0.36675,0.181924
0.367,0.223357
0.36725,0.256755
0.3675,0.297179
0.36775,0.326013
0.368,0.337113
0.36825,0.34931
0.3685,0.346349
0.36875,0.342239
0.369,0.335469
0.36925,0.317345
0.3695,0.29676
0.36975,0.272449
0.37,0.250292
0.37025,0.237677
0.3705,0.226874
0.37075,0.214971
0.371,0.21681
0.37125,0.226039
0.3715,0.243243
0.37175,0.260498
0.372,0.276663
0.37225,0.302004
0.3725,0.321897
0.37275,0.334784
0.373,0.348668
0.37325,0.345886
0.3735,0.345964
0.37375,0.330271
0.374,0.313643
0.37425,0.284104
0.3745,0.243793
0.37475,0.209833
0.375,0.163042
0.37525,0.125731
0.3755,0.0877836
0.37575,0.0491192
0.376,0.0138527
0.37625,-0.00636107
0.3765,-0.0146247
0.37675,-0.0256172
0.377,-0.0210935
0.37725,-0.00690027
0.3775,0.00844394
0.37775,0.0262465
0.378,0.0493742
0.37825,0.0751507
0.3785,0.0873349
0.37875,0.102256
0.379,0.107569
0.37925,0.110915
0.3795,0.101238
0.37975,0.095425
0.38,0.0722599
0.38025,0.0546869
0.3805,0.0363219
0.38075,0.00994484
0.381,-0.00536577
0.38125,-0.0246038
0.3815,-0.0234687
0.38175,-0.02993
0.382,-0.0168933
0.38225,-0.000501382
0.3825,0.027737
0.38275,0.0629781
0.383,0.100181
0.38325,0.142252
0.3835,0.178202
0.38375,0.21644
0.384,0.252753
0.38425,0.281653
0.3845,0.311641
0.38475,0.324352
0.385,0.334365
0.38525,0.325693
0.3855,0.314223
0.38575,0.30482
0.386,0.279127
0.38625,0.261759
0.3865,0.242959
0.38675,0.225117
0.387,0.205545
0.38725,0.196114
0.3875,0.188187
0.38775,0.194548
0.388,0.205935
0.38825,0.212574
0.3885,0.237513
0.38875,0.252946
0.389,0.280006
0.38925,0.291607
0.3895,0.311223
0.38975,0.320663
0.39,0.315616
0.39025,0.310048
0.3905,0.292548
0.39075,0.270886
0.391,0.239887
0.39125,0.200214
0.3915,0.153452
0.39175,0.109849
0.392,0.0746772
0.39225,0.0361772
0.3925,0.0016381
0.39275,-0.0316488
0.393,-0.0455502
0.39325,-0.0581307
0.3935,-0.0613772
0.39375,-0.0569164
0.394,-0.0403762
0.39425,-0.0266565
0.3945,-0.00527338
0.39475,0.0161224
0.395,0.0288602
0.39525,0.0483453
0.3955,0.0609728
0.39575,0.0634198
0.396,0.0624873
0.39625,0.0545308
0.3965,0.0383924
0.39675,0.0198866
0.397,0.0018254
0.39725,-0.0211033
0.3975,-0.0468038
0.39775,-0.0633323
0.398,-0.0748843
0.39825,-0.0824306
0.3985,-0.0711679
0.39875,-0.0597517
0.399,-0.0436146
0.39925,-0.0194735
0.3995,0.0190042
0.39975,0.0590395
0.4,0.0943541
0.40025,0.138318
0.4005,0.176361
0.40075,0.214328
0.401,0.241161
0.40125,0.262309
0.4015,0.269727
0.40175,0.27019
0.402,0.274267
0.40225,0.253227
0.4025,0.23755
0.40275,0.217913
0.403,0.198063
0.40325,0.174358
0.4035,0.152933
0.40375,0.144348
0.404,0.135917
0.40425,0.135636
0.4045,0.138961
0.40475,0.151034
0.405,0.165617
0.40525,0.184667
0.4055,0.201501
0.40575,0.21847
0.406,0.236121
0.40625,0.252356
0.4065,0.252168
0.40675,0.257399
0.407,0.246051
0.40725,0.223749
0.4075,0.190175
0.40775,0.158202
0.408,0.124661
0.40825,0.0823858
0.4085,0.0387781
0.40875,-0.00822681
0.409,-0.0421189
0.40925,-0.0787752
0.4095,-0.104778
0.40975,-0.115312
0.41,-0.126365
0.41025,-0.129848
0.4105,-0.114074
0.41075,-0.10691
0.411,-0.0825692
0.41125,-0.0632537
0.4115,-0.049758
0.41175,-0.0275887
0.412,-0.0109672
0.41225,-0.00544249
0.4125,-0.000689265
0.41275,-0.0093405
0.413,-0.0193254
0.41325,-0.0323257
0.4135,-0.0549858
0.41375,-0.0760499
0.414,-0.0985955
0.41425,-0.114789
0.4145,-0.130991
0.41475,-0.144991
0.415,-0.149559
0.41525,-0.139631
0.4155,-0.124723
0.41575,-0.099405
0.416,-0.0774007
0.41625,-0.0415867
0.4165,0.00507243
0.41675,0.0397542
0.417,0.08273
0.41725,0.125873
0.4175,0.158883
0.41775,0.180111
0.418,0.194758
0.41825,0.202965
0.4185,0.208911
0.41875,0.199208
0.419,0.184577
0.41925,0.166045
0.4195,0.146744
0.41975,0.12047
0.42,0.0985276
0.42025,0.0855431
0.4205,0.0722782
0.42075,0.060691
0.421,0.0688253
0.42125,0.0701772
0.4215,0.082421
0.42175,0.100665
0.422,0.123993
0.42225,0.139595
0.4225,0.157239
0.42275,0.177872
0.423,0.184273
0.42325,0.191179
0.4235,0.183418
0.42375,0.165718
0.424,0.149028
0.42425,0.121639
0.4245,0.0835901
0.42475,0.0433764
0.425,0.00132232
0.42525,-0.0476481
0.4255,-0.0822318
0.42575,-0.126125
0.426,-0.148556
0.42625,-0.175365
0.4265,-0.187811
0.42675,-0.194021
0.427,-0.189821
0.42725,-0.175297
0.4275,-0.16276
0.42775,-0.146401
0.428,-0.120825
0.42825,-0.108021
0.4285,-0.0854355
0.42875,-0.0781671
0.429,-0.0675556
0.42925,-0.0642109
0.4295,-0.0769106
0.42975,-0.0842362
0.43,-0.10762
0.43025,-0.128272
0.4305,-0.14588
0.43075,-0.165717
0.431,-0.185502
0.43125,-0.196549
0.4315,-0.206089
0.43175,-0.211296
0.432,-0.198153
0.43225,-0.181951
0.4325,-0.152588
0.43275,-0.121252
0.433,-0.0866156
0.43325,-0.0482333
0.4335,-0.00119393
0.43375,0.0389403
0.434,0.0775159
0.43425,0.106972
0.4345,0.124758
0.43475,0.146239
0.435,0.147521
0.43525,0.145785
0.4355,0.140475
0.43575,0.120321
0.436,0.103931
0.43625,0.0789318
0.4365,0.0596819
0.43675,0.037409
0.437,0.0177326
0.43725,0.0138357
0.4375,0.0124299
0.43775,0.0131097
0.438,0.0210902
0.43825,0.0318562
0.4385,0.0514117
0.43875,0.0747207
0.439,0.0968969
0.43925,0.111022
0.4395,0.123977
0.43975,0.138751
0.44,0.133779
0.44025,0.123222
0.4405,0.112867
0.44075,0.0840357
0.441,0.0540117
0.44125,0.0158761
0.4415,-0.0241261
0.44175,-0.0626527
0.442,-0.110944
0.44225,-0.151543
0.4425,-0.180122
0.44275,-0.210566
0.443,-0.223779
0.44325,-0.237304
0.4435,-0.243697
0.44375,-0.23646
0.444,-0.223461
0.44425,-0.203971
0.4445,-0.183649
0.44475,-0.163252
0.445,-0.139594
0.44525,-0.124039
0.4455,-0.115341
0.44575,-0.105707
0.446,-0.113268
0.44625,-0.123801
0.4465,-0.132088
0.44675,-0.147635
0.447,-0.17174
0.44725,-0.190157
0.4475,-0.218262
0.44775,-0.235886
0.448,-0.240868
0.44825,-0.248748
0.4485,-0.241906
0.44875,-0.227911
0.449,-0.211983
0.44925,-0.178487
0.4495,-0.145295
0.44975,-0.110093
0.45,-0.0618688
0.45025,-0.0288169
0.4505,0.0154099
0.45075,0.0449016
0.451,0.0745385
0.45125,0.0990708
0.4515,0.111933
0.45175,0.118742
0.452,0.10977
0.45225,0.0995731
0.4525,0.0809468
0.45275,0.0612473
0.453,0.0363404
0.45325,0.0210876
0.4535,0.0015841
0.45375,-0.0136699
0.454,-0.0162893
0.45425,-0.018095
0.4545,-0.0153643
0.45475,-0.00106179
0.455,0.0159992
0.45525,0.0313279
0.4555,0.0555649
0.45575,0.0786789
0.456,0.089747
0.45625,0.106473
0.4565,0.107484
0.45675,0.108448
0.457,0.0957582
0.45725,0.0800095
0.4575,0.0545465
0.45775,0.0245956
0.458,-0.0159099
0.45825,-0.0557212
0.4585,-0.098299
0.45875,-0.141721
0.459,-0.177873
0.45925,-0.213822
0.4595,-0.235585
0.45975,-0.249121
0.46,-0.254657
0.46025,-0.25918
0.4605,-0.248209
0.46075,-0.233315
0.461,-0.213257
0.46125,-0.1894
0.4615,-0.170124
0.46175,-0.15342
0.462,-0.137897
0.46225,-0.12822
0.4625,-0.121518
0.46275,-0.129295
0.463,-0.139765
0.46325,-0.153373
0.4635,-0.170274
0.46375,-0.187861
0.464,-0.213287
0.46425,-0.231937
0.4645,-0.247655
0.46475,-0.255283
0.465,-0.259476
0.46525,-0.252657
0.4655,-0.230995
0.46575,-0.20665
0.466,-0.176652
0.46625,-0.143381
0.4665,-0.0988114
0.46675,-0.0587028
0.467,-0.0189919
0.46725,0.0190326
0.4675,0.0512968
0.46775,0.0815082
0.468,0.100808
0.46825,0.110557
0.4685,0.106458
0.46875,0.102254
0.469,0.08785
0.46925,0.0691376
0.4695,0.0513442
0.46975,0.0356122
0.47,0.013349
0.47025,-0.00115498
0.4705,-0.010578
0.47075,-0.021854
0.471,-0.0155923
0.47125,-0.0144484
0.4715,0.00205994
0.47175,0.0239396
0.472,0.0444349
0.47225,0.0625953
0.4725,0.0833268
0.47275,0.0956944
0.473,0.111914
0.47325,0.117126
0.4735,0.112157
0.47375,0.0935885
0.474,0.082029
0.47425,0.0497102
0.4745,0.0178221
0.47475,-0.0235058
0.475,-0.0656846
0.47525,-0.112226
0.4755,-0.146217
0.47575,-0.185884
0.476,-0.211992
0.47625,-0.232671
0.4765,-0.249802
0.47675,-0.249518
0.477,-0.245233
0.47725,-0.234852
0.4775,-0.218629
0.47775,-0.199036
0.478,-0.1721
0.47825,-0.157673
0.4785,-0.132764
0.47875,-0.12599
0.479,-0.112246
0.47925,-0.110741
0.4795,-0.116102
0.47975,-0.124802
0.48,-0.148314
0.48025,-0.168016
0.4805,-0.182007
0.48075,-0.200868
0.481,-0.225072
0.48125,-0.231433
0.4815,-0.242142
0.48175,-0.239305
0.482,-0.230013
0.48225,-0.208438
0.4825,-0.184116
0.48275,-0.151186
0.483,-0.107449
0.48325,-0.0746763
0.4835,-0.0283266
0.48375,0.0167503
0.484,0.0504015
0.48425,0.0819493
0.4845,0.10334
0.48475,0.12739
0.485,0.128842
0.48525,0.130214
0.4855,0.117834
0.48575,0.108519
0.486,0.0887502
0.48625,0.0673343
0.4865,0.0429907
0.48675,0.0324574
0.487,0.0086431
0.48725,0.00876873
0.4875,-0.00296958
0.48775,0.0045032
0.488,0.01967
0.48825,0.0269649
0.4885,0.054318
0.48875,0.0740371
0.489,0.0889285
0.48925,0.117534
0.4895,0.130947
0.48975,0.141415
0.49,0.143274
0.49025,0.136667
0.4905,0.112642
0.49075,0.0991528
0.491,0.0641698
0.49125,0.0237541
0.4915,-0.0141659
0.49175,-0.0585096
0.492,-0.0952468
0.49225,-0.133411
0.4925,-0.165532
0.49275,-0.196711
0.493,-0.205986
0.49325,-0.218541
0.4935,-0.222519
0.49375,-0.209349
0.494,-0.199488
0.49425,-0.180546
0.4945,-0.156814
0.49475,-0.140961
0.495,-0.120412
0.49525,-0.097799
0.4955,-0.0932547
0.49575,-0.0852788
0.496,-0.0799949
0.49625,-0.092561
0.4965,-0.106912
0.49675,-0.125754
0.497,-0.143238
0.49725,-0.161946
0.4975,-0.184287
0.49775,-0.193483
0.498,-0.2054
0.49825,-0.214648
0.4985,-0.208422
0.49875,-0.1969
0.499,-0.169548
0.49925,-0.140824
0.4995,-0.107583
0.49975,-0.0646986
0.5,-0.0252055
0.50025,0.0182655
0.5005,0.0601029
0.50075,0.0905964
0.501,0.125634
0.50125,0.149305
0.5015,0.160185
0.50175,0.158417
0.502,0.158756
0.50225,0.15211
0.5025,0.128419
0.50275,0.1098
0.503,0.0928639
0.50325,0.0693411
0.5035,0.0511057
0.50375,0.0437845
0.504,0.0323132
0.50425,0.0333872
0.5045,0.0438021
0.50475,0.0556094
0.505,0.0678777
0.50525,0.0851182
0.5055,0.113928
0.50575,0.129148
0.506,0.146961
0.50625,0.165
0.5065,0.173345
0.50675,0.172288
0.507,0.161001
0.50725,0.139233
0.5075,0.117519
0.50775,0.0869367
0.508,0.0449666
0.50825,0.00482176
0.5085,-0.035389
0.50875,-7.42E-02
0.509,-0.108955
0.50925,-0.144376
0.5095,-0.163259
0.50975,-0.178244
0.51,-0.185299
0.51025,-0.183807
0.5105,-0.18145
0.51075,-0.157146
0.511,-0.140618
0.51125,-0.11677
0.5115,-0.101655
0.51175,-0.0758468
0.512,-0.0611473
0.51225,-0.054833
0.5125,-0.0474337
0.51275,-0.0494318
0.513,-0.060803
0.51325,-0.0806121
0.5135,-0.0906395
0.51375,-0.117203
0.514,-0.140884
0.51425,-0.1536
0.5145,-0.168413
0.51475,-0.173485
0.515,-0.178196
0.51525,-0.171273
0.5155,-1.59E-01
0.51575,-0.134431
0.516,-0.103677
0.51625,-0.066214
0.5165,-0.01747
0.51675,0.0215842
0.517,0.0653666
0.51725,0.0980635
0.5175,0.133467
0.51775,0.16723
0.518,0.180637
0.51825,0.190796
0.5185,0.192061
0.51875,0.188275
0.519,0.173349
0.51925,0.158377
0.5195,0.133597
0.51975,0.116818
0.52,0.0957471
0.52025,0.0767113
0.5205,0.070026
0.52075,0.0680265
0.521,0.0633366
0.52125,0.0732594
0.5215,0.0915737
0.52175,0.110138
0.522,0.126582
0.52225,0.147595
0.5225,0.171028
0.52275,0.187315
0.523,0.19679
0.52325,0.197885
0.5235,0.200718
0.52375,0.182278
0.524,0.163449
0.52425,0.137073
0.5245,0.106086
0.52475,0.0608523
0.525,0.0218882
0.52525,-0.017696
0.5255,-0.0606437
0.52575,-0.0970959
0.526,-0.128051
0.52625,-0.146647
0.5265,-0.157311
0.52675,-0.165652
0.527,-0.161436
0.52725,-0.149006
0.5275,-0.130934
0.52775,-0.113533
0.528,-0.0881775
0.52825,-0.0687005
0.5285,-0.0500919
0.52875,-0.0344124
0.529,-0.0260459
0.52925,-0.0226901
0.5295,-0.0335178
0.52975,-0.0403726
0.53,-0.0548941
0.53025,-0.0749862
0.5305,-0.0999901
0.53075,-0.116313
0.531,-0.132778
0.53125,-0.151143
0.5315,-0.157621
0.53175,-0.156209
0.532,-0.145902
0.53225,-0.125409
0.5325,-0.0965926
0.53275,-0.0602138
0.533,-0.022306
0.53325,0.0150186
0.5335,0.0625838
0.53375,0.102847
0.534,0.135372
0.53425,0.164833
0.5345,0.191235
0.53475,0.209578
0.535,0.212247
0.53525,0.217881
0.5355,0.204961
0.53575,0.185468
0.536,0.171668
0.53625,0.149173
0.5365,0.124318
0.53675,0.105985
0.537,0.100673
0.53725,0.0902411
0.5375,0.0820801
0.53775,0.0838294
0.538,0.0926644
0.53825,0.11432
0.5385,0.133077
0.53875,0.154488
0.539,0.177651
0.53925,0.194711
0.5395,0.207741
0.53975,0.218591
0.54,0.21995
0.54025,0.207329
0.5405,0.193636
0.54075,0.170363
0.541,0.13819
0.54125,0.100903
0.5415,0.0611788
0.54175,0.0183725
0.542,-0.022397
0.54225,-0.0547662
0.5425,-0.0924038
0.54275,-0.114396
0.543,-0.139526
0.54325,-0.145951
0.5435,-0.150094
0.54375,-0.137618
0.544,-0.125142
0.54425,-0.10968
0.5445,-0.0879673
0.54475,-0.0626554
0.545,-0.0463624
0.54525,-0.0343902
0.5455,-0.0226304
0.54575,-0.0133645
0.546,-0.0171954
0.54625,-0.0229863
0.5465,-0.0318318
0.54675,-0.0530508
0.547,-0.069246
0.54725,-0.0978737
0.5475,-0.111686
0.54775,-0.135317
0.548,-0.141075
0.54825,-0.144971
0.5485,-0.138499
0.54875,-0.125438
0.549,-0.111816
0.54925,-0.0834793
0.5495,-0.0441503
0.54975,-0.00765226
0.55,0.0414491
0.55025,0.081828
0.5505,0.124266
0.55075,0.160005
0.551,0.188367
0.55125,0.20994
0.5515,0.218547
0.55175,0.217043
0.552,0.216251
0.55225,0.206597
0.5525,0.189987
0.55275,0.166368
0.553,0.144367
0.55325,0.127305
0.5535,0.110932
0.55375,0.0925881
0.554,0.0936956
0.55425,0.0845608
0.5545,0.0901104
0.55475,0.104995
0.555,0.125994
0.55525,0.144641
0.5555,0.160207
0.55575,0.179705
0.556,0.205555
0.55625,0.210848
0.5565,0.225598
0.55675,0.218035
0.557,0.212068
0.55725,0.192261
0.5575,0.166238
0.55775,0.135872
0.558,0.091262
0.55825,0.0484433
0.5585,0.0132954
0.55875,-0.0323488
0.559,-0.0707616
0.55925,-0.101116
0.5595,-0.123153
0.55975,-0.140187
0.56,-0.151255
0.56025,-0.145291
0.5605,-0.132082
0.56075,-0.118506
0.561,-0.102237
0.56125,-0.085064
0.5615,-0.0608617
0.56175,-0.0389652
0.562,-0.0310852
0.56225,-0.0138147
0.5625,-0.0151215
0.56275,-0.0192231
0.563,-0.0220993
0.56325,-0.0443514
0.5635,-0.0603715
0.56375,-0.0803344
0.564,-0.103477
0.56425,-0.123784
0.5645,-0.135749
0.56475,-0.14529
0.565,-0.149177
0.56525,-0.141833
0.5655,-0.129235
0.56575,-0.101923
0.566,-0.0668499
0.56625,-0.0369675
0.5665,0.00280666
0.56675,0.0446705
0.567,0.0931039
0.56725,0.126186
0.5675,0.164334
0.56775,0.187644
0.568,0.20911
0.56825,0.215383
0.5685,0.219683
0.56875,0.208753
0.569,0.199717
0.56925,0.177615
0.5695,0.15649
0.56975,0.132428
0.57,0.115115
0.57025,0.10133
0.5705,0.0895336
0.57075,0.0855859
0.571,0.0811972
0.57125,0.0939258
0.5715,0.106666
0.57175,0.119625
0.572,0.139584
0.57225,0.162983
0.5725,0.177753
0.57275,0.197514
0.573,0.2135
0.57325,0.209008
0.5735,0.209499
0.57375,0.199996
0.574,0.178591
0.57425,0.145603
0.5745,0.111558
0.57475,0.0688912
0.575,0.0306994
0.57525,-0.0116023
0.5755,-0.0577672
0.57575,-0.0934227
0.576,-0.115016
0.57625,-0.143132
0.5765,-0.147344
0.57675,-0.151763
0.577,-0.147763
0.57725,-0.141285
0.5775,-0.127342
0.57775,-0.105045
0.578,-0.0888112
0.57825,-0.0613935
0.5785,-0.0418847
0.57875,-0.0340449
0.579,-0.0231579
0.57925,-0.0211436
0.5795,-0.0328819
0.57975,-0.0451864
0.58,-0.0579507
0.58025,-0.0797535
0.5805,-0.105039
0.58075,-0.126638
0.581,-0.137314
0.58125,-0.157127
0.5815,-0.156419
0.58175,-0.157812
0.582,-0.146884
0.58225,-0.128123
0.5825,-0.101793
0.58275,-0.072438
0.583,-0.0363243
0.58325,0.0102775
0.5835,0.0473154
0.58375,0.0904782
0.584,0.128659
0.58425,0.157723
0.5845,0.177369
0.58475,0.19284
0.585,0.204082
0.58525,0.203393
0.5855,0.189639
0.58575,0.173719
0.586,0.162678
0.58625,0.139428
0.5865,0.113069
0.58675,0.0951618
0.587,0.0794302
0.58725,0.073235
0.5875,0.0641094
0.58775,0.0723624
0.588,0.0809975
0.58825,0.0966112
0.5885,0.113091
0.58875,0.132862
0.589,0.156657
0.58925,0.176603
0.5895,0.194775
0.58975,0.20014
0.59,0.197368
0.59025,0.189769
0.5905,0.180886
0.59075,0.148388
0.591,0.116796
0.59125,0.0846098
0.5915,0.0445129
0.59175,-0.000487302
0.592,-0.0455962
0.59225,-0.0759536
0.5925,-0.115275
0.59275,-0.142814
0.593,-0.156876
0.59325,-0.166407
0.5935,-0.172609
0.59375,-0.162635
0.594,-0.147642
0.59425,-0.135521
0.5945,-0.112433
0.59475,-0.0931187
0.595,-0.0680414
0.59525,-0.0569014
0.5955,-0.0452338
0.59575,-0.0418258
0.596,-0.0367683
0.59625,-0.0488464
0.5965,-0.0561023
0.59675,-0.0816645
0.597,-0.102747
0.59725,-0.119559
0.5975,-0.140234
0.59775,-0.157176
0.598,-0.172041
0.59825,-0.174124
0.5985,-0.168603
0.59875,-0.153899
0.599,-0.137713
0.59925,-0.104496
0.5995,-0.0697908
0.59975,-0.0331647
0.6,0.0115401
0.60025,0.0459415
0.6005,0.0918435
0.60075,0.121847
0.601,0.157692
0.60125,0.178244
0.6015,0.190615
0.60175,0.187536
0.602,0.190375
0.60225,0.177483
0.6025,0.157088
0.60275,0.138218
0.603,0.119719
0.60325,0.100815
0.6035,0.0758905
0.60375,0.0626951
0.604,0.0605735
0.60425,0.0570169
0.6045,0.0591506
0.60475,0.0740351
0.605,0.0850948
0.60525,0.105347
0.6055,0.130793
0.60575,0.153083
0.606,0.165167
0.60625,0.185589
0.6065,0.18362
0.60675,1.88E-01
0.607,0.172314
0.60725,0.158335
0.6075,0.126987
0.60775,0.0943797
0.608,0.0590849
0.60825,0.0184794
0.6085,-0.0254008
0.60875,-0.0625538
0.609,-0.0987036
0.60925,-0.132871
0.6095,-0.159089
0.60975,-0.175283
0.61,-0.182563
0.61025,-0.184263
0.6105,-0.17627
0.61075,-0.15986
0.611,-0.136206
0.61125,-0.121343
0.6115,-0.0940011
0.61175,-0.0721662
0.612,-0.0633003
0.61225,-0.0490972
0.6125,-0.0451456
0.61275,-0.053528
0.613,-0.0637361
0.61325,-0.0751559
0.6135,-0.0926917
0.61375,-0.117044
0.614,-0.14047
0.61425,-0.15868
0.6145,-0.175275
0.61475,-0.183963
0.615,-0.182505
0.61525,-0.177169
0.6155,-0.161491
0.61575,-0.13349
0.616,-0.107292
0.61625,-0.0704844
0.6165,-0.0303443
0.61675,0.0172526
0.617,0.0569578
0.61725,0.0947697
0.6175,0.12731
0.61775,0.153742
0.618,0.166687
0.61825,0.18269
0.6185,0.176967
0.61875,0.169675
0.619,0.166109
0.61925,0.145515
0.6195,0.120542
0.61975,0.101626
0.62,0.0823927
0.62025,0.0691073
0.6205,0.0573976
0.62075,0.0454727
0.621,0.0456256
0.62125,0.0592534
0.6215,0.0657912
0.62175,0.0842813
0.622,0.104508
0.62225,0.132536
0.6225,0.145192
0.62275,0.162568
0.623,0.172502
0.62325,0.1807
0.6235,0.177708
0.62375,0.159167
0.624,0.140333
0.62425,0.109084
0.6245,0.0728991
0.62475,0.039093
0.625,-4.18E-05
0.62525,-0.0457919
0.6255,-0.0899973
0.62575,-0.117275
0.626,-0.149044
0.62625,-0.171028
0.6265,-0.189304
0.62675,-0.190133
0.627,-0.182039
0.62725,-0.174981
0.6275,-0.154929
0.62775,-0.134581
0.628,-0.118463
0.62825,-0.0913909
0.6285,-0.0753357
0.62875,-0.0622267
0.629,-0.0558541
0.62925,-0.0551317
0.6295,-0.0616708
0.62975,-0.0738845
0.63,-0.089179
0.63025,-0.111564
0.6305,-0.126325
0.63075,-0.149362
0.631,-0.169402
0.63125,-0.184385
0.6315,-0.1933
0.63175,-0.191869
0.632,-0.180782
0.63225,-0.15704
0.6325,-0.135908
0.63275,-0.0953206
0.633,-0.0658365
0.63325,-0.0200964
0.6335,0.0259091
0.63375,0.060802
0.634,0.102185
0.63425,0.128396
0.6345,0.157268
0.63475,0.165011
0.635,0.176949
0.63525,0.175606
0.6355,0.170025
0.63575,0.153988
0.636,0.128203
0.63625,0.112922
0.6365,0.0899637
0.63675,0.067049
0.637,0.059797
0.63725,0.049292
0.6375,0.0414099
0.63775,0.0451822
0.638,0.0593951
0.63825,0.0663837
0.6385,0.0913486
0.63875,0.108479
0.639,0.131628
0.63925,0.148621
0.6395,0.163293
0.63975,0.177867
0.64,0.181637
0.64025,0.164973
0.6405,0.155221
0.64075,0.125392
0.641,0.0976472
0.64125,0.064244
0.6415,0.0193582
0.64175,-0.0216248
0.642,-0.0577312
0.64225,-0.097044
0.6425,-0.13368
0.64275,-0.161129
0.643,-0.177582
0.64325,-0.186199
0.6435,-0.185399
0.64375,-0.179001
0.644,-0.167121
0.64425,-0.152453
0.6445,-0.135595
0.64475,-0.108469
0.645,-0.0930186
0.64525,-0.0727987
0.6455,-0.0610615
0.64575,-0.055685
0.646,-0.0584075
0.64625,-0.0685386
0.6465,-0.0736231
0.64675,-0.0987537
0.647,-0.113489
0.64725,-0.143015
0.6475,-0.157624
0.64775,-0.174161
0.648,-0.183756
0.64825,-0.192421
0.6485,-0.187061
0.64875,-0.170407
0.649,-0.147564
0.64925,-0.124882
0.6495,-0.0852796
0.64975,-0.0437421
0.65,-0.010413
0.65025,0.0326029
0.6505,0.0715147
0.65075,0.112367
0.651,0.136317
0.65125,0.159204
0.6515,0.172349
0.65175,0.183141
0.652,0.170068
0.65225,0.159332
0.6525,0.151327
0.65275,0.122594
0.653,0.102471
0.65325,0.082918
0.6535,0.0716009
0.65375,0.0576309
0.654,0.0421272
0.65425,0.0416135
0.6545,0.0467675
0.65475,0.0643301
0.655,0.0810308
0.65525,0.102741
0.6555,0.125284
0.65575,0.142205
0.656,0.162404
0.65625,0.174565
0.6565,0.177737
0.65675,0.180597
0.657,0.166097
0.65725,0.152805
0.6575,0.120307
0.65775,0.0914786
0.658,0.0520844
0.65825,0.00792842
0.6585,-0.0329919
0.65875,-0.0694182
0.659,-0.113478
0.65925,-0.144341
0.6595,-0.168962
0.65975,-0.182807
0.66,-0.185229
0.66025,-0.180687
0.6605,-0.179453
0.66075,-0.16651
0.661,-0.141217
0.66125,-0.125094
0.6615,-0.0966062
0.66175,-0.0825967
0.662,-0.0629487
0.66225,-0.0587158
0.6625,-0.057167
0.66275,-0.0530683
0.663,-0.0655261
0.66325,-0.0772433
0.6635,-0.103687
0.66375,-0.119229
0.664,-0.138074
0.66425,-0.163819
0.6645,-0.173898
0.66475,-0.180039
0.665,-0.181144
0.66525,-0.176861
0.6655,-0.162713
0.66575,-0.142863
0.666,-0.103069
0.66625,-0.0690141
0.6665,-0.02537
0.66675,0.0103772
0.667,0.0502347
0.66725,0.0935499
0.6675,0.123115
0.66775,0.150843
0.668,0.175528
0.66825,0.180034
0.6685,0.1842
0.66875,0.17152
0.669,0.163862
0.66925,0.143482
0.6695,0.122099
0.66975,0.103952
0.67,0.0867741
0.67025,0.063547
0.6705,0.0567617
0.67075,0.0534376
0.671,0.0493066
0.67125,0.0616327
0.6715,0.0675234
0.67175,0.0895732
0.672,0.106829
0.67225,0.130363
0.6725,0.154804
0.67275,0.16738
0.673,0.183714
0.67325,0.181222
0.6735,0.174713
0.67375,0.164931
0.674,0.141426
0.67425,0.112571
0.6745,0.0854067
0.67475,0.0396773
0.675,0.00530402
0.67525,-0.0415995
0.6755,-0.0797975
0.67575,-0.117075
0.676,-0.147606
0.67625,-0.161245
0.6765,-0.183523
0.67675,-0.178458
0.677,-0.178757
0.67725,-0.169404
0.6775,-0.15087
0.67775,-0.127288
0.678,-0.106809
0.67825,-0.0850497
0.6785,-0.0751637
0.67875,-0.0532883
0.679,-0.0487594
0.67925,-0.0505876
0.6795,-0.0539043
0.67975,-0.0622188
0.68,-0.0834854
0.68025,-0.103362
0.6805,-0.125419
0.68075,-0.148645
0.681,-0.16125
0.68125,-0.179444
0.6815,-0.177508
0.68175,-0.17516
0.682,-0.172387
0.68225,-0.147
0.6825,-0.127852
0.68275,-0.0953692
0.683,-0.0518081
0.68325,-0.00685392
0.6835,0.0315949
0.68375,0.0696689
0.684,0.107199
0.68425,0.135323
0.6845,0.163631
0.68475,0.179153
0.685,0.182833
0.68525,0.189574
0.6855,0.176289
0.68575,0.163728
0.686,0.147514
0.68625,0.124796
0.6865,0.103607
0.68675,0.0821384
0.687,0.071539
0.68725,0.0587556
0.6875,0.0524156
0.68775,0.0578201
0.688,0.0672264
0.68825,0.0785273
0.6885,0.105095
0.68875,0.123587
0.689,0.144121
0.68925,0.158942
0.6895,0.175339
0.68975,0.18581
0.69,0.19154
0.69025,0.185443
0.6905,0.168408
0.69075,0.137335
0.691,0.112652
0.69125,0.0711708
0.6915,0.028918
0.69175,-0.0138021
0.692,-0.053657
0.69225,-0.0863391
0.6925,-0.123285
0.69275,-0.14461
0.693,-0.169102
0.69325,-0.179072
0.6935,-0.181078
0.69375,-0.169362
0.694,-0.156929
0.69425,-0.140771
0.6945,-0.116092
0.69475,-0.0953966
0.695,-0.0757371
0.69525,-0.0601178
0.6955,-0.0461069
0.69575,-0.0412804
0.696,-0.0478672
0.69625,-0.0541472
0.6965,-0.0706188
0.69675,-0.0816751
0.697,-0.102855
0.69725,-0.128057
0.6975,-0.149912
0.69775,-0.163189
0.698,-0.172189
0.69825,-0.175593
0.6985,-0.175988
0.69875,-0.160261
0.699,-0.135867
0.69925,-0.115123
0.6995,-0.0764844
0.69975,-0.039404
0.7,0.00195118
0.70025,0.0511496
0.7005,0.0833242
0.70075,0.118883
0.701,0.149187
0.70125,0.173408
0.7015,0.187845
0.70175,0.193305
0.702,0.186285
0.70225,0.173096
0.7025,0.160318
0.70275,0.14243
0.703,0.122116
0.70325,0.0982442
0.7035,0.0828593
0.70375,0.0627392
0.704,0.0606451
0.70425,0.0551111
0.7045,0.058987
0.70475,0.0794494
0.705,0.0868301
0.70525,0.112083
0.7055,0.136396
0.70575,0.153639
0.706,0.16853
0.70625,0.187311
0.7065,0.18859
0.70675,0.189637
0.707,0.177627
0.70725,0.156996
0.7075,0.13952
0.70775,0.102081
0.708,0.0600708
0.70825,0.0227371
0.7085,-0.0192255
0.70875,-0.0604167
0.709,-0.095316
0.70925,-0.125689
0.7095,-0.151389
0.70975,-0.168153
0.71,-0.174466
0.71025,-0.176441
0.7105,-0.168915
0.71075,-0.15153
0.711,-0.135775
0.71125,-0.11075
0.7115,-0.0856816
0.71175,-0.0682092
0.712,-0.0557075
0.71225,-0.0439815
0.7125,-0.044154
0.71275,-0.043524
0.713,-0.0545646
0.71325,-0.0665701
0.7135,-0.089385
0.71375,-0.110234
0.714,-0.129531
0.71425,-0.145449
0.7145,-0.1661
0.71475,-0.17224
0.715,-0.17264
0.71525,-0.163338
0.7155,-0.154535
0.71575,-0.129037
0.716,-0.101733
0.71625,-0.0592278
0.7165,-0.0237656
0.71675,0.0174124
0.717,0.064783
0.71725,0.104326
0.7175,0.135136
0.71775,0.165222
0.718,0.180202
0.71825,0.185199
0.7185,0.189844
0.71875,0.181973
0.719,0.172712
0.71925,0.156363
0.7195,0.135348
0.71975,0.111073
0.72,0.0956638
0.72025,0.0787174
0.7205,0.060012
0.72075,0.0556267
0.721,0.0634652
0.72125,0.0713654
0.7215,0.0814586
0.72175,0.0978992
0.722,0.115062
0.72225,0.136692
0.7225,0.157269
0.72275,0.176875
0.723,0.190928
0.72325,0.190351
0.7235,0.192601
0.72375,0.17829
0.724,0.15007
0.72425,0.128495
0.7245,0.0930637
0.72475,0.0525847
0.725,0.00857221
0.72525,-0.0373745
0.7255,-0.0724728
0.72575,-0.113487
0.726,-0.133074
0.72625,-0.15773
0.7265,-0.17471
0.72675,-0.173852
0.727,-0.168444
0.72725,-0.16526
0.7275,-0.140893
0.72775,-0.12108
0.728,-0.0996111
0.72825,-0.0809958
0.7285,-0.0600947
0.72875,-0.0485913
0.729,-0.0398703
0.72925,-0.0396581
0.7295,-0.0497133
0.72975,-0.0561628
0.73,-0.0736396
0.73025,-0.0911542
0.7305,-0.121002
0.73075,-0.139806
0.731,-0.157289
0.73125,-0.170745
0.7315,-0.170802
0.73175,-0.175752
0.732,-0.160616
0.73225,-0.149411
0.7325,-0.123046
0.73275,-0.0866184
0.733,-0.0522712
0.73325,-0.00246877
0.7335,0.0321926
0.73375,0.0756087
0.734,0.11577
0.73425,0.149754
0.7345,0.16499
0.73475,0.181122
0.735,0.192333
0.73525,0.191566
0.7355,0.182739
0.73575,0.169662
0.736,0.143254
0.73625,0.122314
0.7365,0.100849
0.73675,0.0886621
0.737,0.0732651
0.73725,0.06218
0.7375,0.0599356
0.73775,0.0596037
0.738,0.0752244
0.73825,0.0874996
0.7385,0.106416
0.73875,0.121248
0.739,0.145554
0.73925,0.166129
0.7395,0.176041
0.73975,0.192266
0.74,0.19366
0.74025,0.180224
0.7405,0.167954
0.74075,0.146159
0.741,0.116596
0.74125,0.0767796
0.7415,0.0374472
0.74175,-0.00368029
0.742,-0.0520146
0.74225,-0.0845689
0.7425,-0.121244
0.74275,-0.142216
0.743,-0.167526
0.74325,-0.177119
0.7435,-0.1763
0.74375,-0.171832
0.744,-0.151956
0.74425,-0.142208
0.7445,-0.114797
0.74475,-0.0928203
0.745,-0.0748321
0.74525,-0.0594096
0.7455,-0.0519507
0.74575,-0.0384251
0.746,-0.045194
0.74625,-0.04702
0.7465,-0.0648353
0.74675,-0.0802271
0.747,-0.102219
0.74725,-0.129013
0.7475,-0.142668
0.74775,-0.164574
0.748,-0.168868
0.74825,-0.176704
0.7485,-0.172096
0.74875,-0.164645
0.749,-0.137841
0.74925,-0.105974
0.7495,-0.0789677
0.74975,-0.0358986
0.75,0.00467178
0.75025,0.0513099
0.7505,0.0927602
0.75075,0.127074
0.751,0.15078
0.75125,0.175114
0.7515,0.189318
0.75175,0.194512
0.752,0.189754
0.75225,0.179803
0.7525,0.160692
0.75275,0.142381
0.753,0.119777
0.75325,0.101543
0.7535,0.0818478
0.75375,0.0630185
0.754,0.0600118
0.75425,0.0567323
0.7545,0.0598385
0.75475,0.0700765
0.755,0.0927924
0.75525,0.108981
0.7555,0.136209
0.75575,0.151252
0.756,0.166976
0.75625,0.187025
0.7565,0.190325
0.75675,0.185655
0.757,0.180583
0.75725,0.1584
0.7575,0.128974
0.75775,0.10068
0.758,0.0610266
0.75825,0.0227066
0.7585,-0.0261006
0.75875,-0.0593104
0.759,-0.104317
0.75925,-0.128688
0.7595,-0.159035
0.75975,-0.170091
0.76,-0.178697
0.76025,-0.177436
0.7605,-0.162032
0.76075,-0.156518
0.761,-0.137991
0.76125,-0.113725
0.7615,-0.0898812
0.76175,-0.0689666
0.762,-0.0584402
0.76225,-0.0485604
0.7625,-0.0431851
0.76275,-0.0506311
0.763,-0.0571575
0.76325,-0.0713336
0.7635,-0.0861318
0.76375,-0.11004
0.764,-0.130783
0.76425,-0.155489
0.7645,-0.162977
0.76475,-0.179994
0.765,-0.180165
0.76525,-0.172349
0.7655,-0.153769
0.76575,-0.132191
0.766,-0.104842
0.76625,-0.0649354
0.7665,-0.0271136
0.76675,0.0245313
0.767,0.0639297
0.76725,0.102304
0.7675,0.128571
0.76775,0.162688
0.768,0.17915
0.76825,0.182781
0.7685,0.18876
0.76875,0.181655
0.769,0.17319
0.76925,0.151689
0.7695,0.131068
0.76975,0.113923
0.77,0.0884467
0.77025,0.0680745
0.7705,0.0628895
0.77075,0.0587253
0.771,0.058929
0.77125,0.0687825
0.7715,0.0728939
0.77175,0.0957314
0.772,0.114492
0.77225,0.134408
0.7725,0.155198
0.77275,0.17092
0.773,0.185882
0.77325,0.185627
0.7735,0.186417
0.77375,0.168998
0.774,0.150671
0.77425,0.126618
0.7745,0.0844126
0.77475,0.043251
0.775,0.00588209
0.77525,-0.0362037
0.7755,-0.0799401
0.77575,-0.108739
0.776,-0.142126
0.77625,-0.157123
0.7765,-0.171947
0.77675,-0.178007
0.777,-0.174404
0.77725,-0.160041
0.7775,-0.145265
0.77775,-0.124955
0.778,-0.103794
0.77825,-0.0860809
0.7785,-0.0662464
0.77875,-0.0495598
0.779,-0.0442757
0.77925,-0.0490649
0.7795,-0.0514092
0.77975,-0.0623467
0.78,-0.0756287
0.78025,-0.0970639
0.7805,-0.117638
0.78075,-0.139032
0.781,-0.157894
0.78125,-0.171426
0.7815,-0.174679
0.78175,-0.177796
0.782,-0.171155
0.78225,-0.148302
0.7825,-0.119049
0.78275,-0.0923251
0.783,-0.0538159
0.78325,-0.00914152
0.7835,0.0363219
0.78375,0.074706
0.784,0.105825
0.78425,0.141229
0.7845,0.165281
0.78475,0.177784
0.785,0.183323
0.78525,0.18713
0.7855,0.172943
0.78575,0.159962
0.786,0.145151
0.78625,0.121856
0.7865,0.102742
0.78675,0.0844968
0.787,0.0713461
0.78725,0.0597747
0.7875,0.0554946
0.78775,0.062812
0.788,0.0699706
0.78825,0.0828241
0.7885,0.102824
0.78875,0.120903
0.789,0.142427
0.78925,0.163798
0.7895,0.179723
0.78975,0.181785
0.79,0.188408
0.79025,0.181958
0.7905,0.168759
0.79075,0.145406
0.791,0.11415
0.79125,7.51E-02
0.7915,0.0348948
0.79175,-0.00494069
0.792,-0.0522693
0.79225,-0.0868259
0.7925,-0.119432
0.79275,-0.150519
0.793,-1.65E-01
0.79325,-0.180924
0.7935,-0.179462
0.79375,-1.77E-01
0.794,-0.158013
0.79425,-0.140082
0.7945,-0.124551
0.79475,-0.0959949
0.795,-0.0829752
0.79525,-0.0625103
0.7955,-0.0556012
0.79575,-0.0438454
0.796,-0.051693
0.79625,-0.0532391
0.7965,-0.0692963
0.79675,-0.0853447
0.797,-0.102715
0.79725,-0.124069
0.7975,-0.151421
0.79775,-0.16246
0.798,-0.178366
0.79825,-0.176768
0.7985,-0.174055
0.79875,-0.162101
0.799,-0.139969
0.79925,-0.117368
0.7995,-0.0754002
0.79975,-0.0402706
0.8,0.00235354
0.80025,0.0510817
0.8005,0.0821561
0.80075,0.117254
0.801,0.153902
0.80125,0.168699
0.8015,0.185757
0.80175,0.191486
0.802,0.184333
0.80225,0.175065
0.8025,0.152442
0.80275,0.140032
0.803,0.116354
0.80325,0.090199
0.8035,0.0724992
0.80375,0.0625369
0.804,0.0573546
0.80425,0.0532132
0.8045,0.0615735
0.80475,0.0735854
0.805,0.0896329
0.80525,0.111338
0.8055,0.13432
0.80575,0.148467
0.806,0.171096
0.80625,1.81E-01
0.8065,0.187102
0.80675,0.183633
0.807,0.179225
0.80725,0.16287
0.8075,0.133423
0.80775,0.100487
0.808,0.0647388
0.80825,0.0204132
0.8085,-0.0189819
0.80875,-0.065062
0.809,-0.104162
0.80925,-0.135958
0.8095,-0.151967
0.80975,-0.173947
0.81,-0.182494
0.81025,-0.177752
0.8105,-0.16491
0.81075,-0.156254
0.811,-0.135664
0.81125,-0.113158
0.8115,-0.0927424
0.81175,-0.0782317
0.812,-0.0580592
0.81225,-0.0513185
0.8125,-4.96E-02
0.81275,-0.0452268
0.813,-0.0590263
0.81325,-0.07459
0.8135,-0.0915019
0.81375,-0.115004
0.814,-0.138599
0.81425,-0.152764
0.8145,-0.169278
0.81475,-0.175708
0.815,-0.182594
0.81525,-0.172196
0.8155,-0.160294
0.81575,-0.133314
0.816,-0.105174
0.81625,-0.0639683
0.8165,-0.027279
0.81675,0.021005
0.817,0.0615328
0.81725,0.0956934
0.8175,0.133348
0.81775,0.162739
0.818,0.176241
0.81825,0.184072
0.8185,0.183915
0.81875,0.177571
0.819,0.169355
0.81925,0.148204
0.8195,0.129646
0.81975,0.111726
0.82,0.0885814
0.82025,0.0766885
0.8205,0.0586962
0.82075,0.0553588
0.821,0.0603388
0.82125,0.0643201
0.8215,0.0798382
0.82175,0.094903
0.822,0.114966
0.82225,0.132556
0.8225,0.159956
0.82275,0.171574
0.823,0.185822
0.82325,0.18543
0.8235,0.184653
0.82375,0.169662
0.824,0.15107
0.82425,0.125374
0.8245,0.0816364
0.82475,0.0453912
0.825,0.00714228
0.82525,-0.0326714
0.8255,-0.0739849
0.82575,-0.112087
0.826,-0.14008
0.82625,-0.165812
0.8265,-0.176456
0.82675,-0.182195
0.827,-0.175288
0.82725,-0.162684
0.8275,-0.150166
0.82775,-0.128465
0.828,-0.110676
0.82825,-0.0878268
0.8285,-0.0701314
0.82875,-0.0548959
0.829,-0.0420097
0.82925,-0.0444522
0.8295,-0.0563036
0.82975,-0.0583306
0.83,-0.0824634
0.83025,-0.102114
0.8305,-0.115971
0.83075,-0.139511
0.831,-0.16241
0.83125,-0.175857
0.8315,-0.175328
0.83175,-0.17359
0.832,-0.166034
0.83225,-0.146473
0.8325,-0.121564
0.83275,-0.0903284
0.833,-0.0463805
0.83325,-0.0135699
0.8335,0.035737
0.83375,0.0693629
0.834,0.110459
0.83425,0.139864
0.8345,0.162631
0.83475,0.179759
0.835,0.18979
0.83525,0.186238
0.8355,0.178774
0.83575,0.163896
0.836,0.147084
0.83625,0.124995
0.8365,0.0997134
0.83675,0.0797399
0.837,0.0638343
0.83725,0.0548956
0.8375,0.0570553
0.83775,0.0591092
0.838,0.0633426
0.83825,0.0829984
0.8385,0.101306
0.83875,0.123711
0.839,0.139287
0.83925,0.161053
0.8395,0.180057
0.83975,0.188115
0.84,0.184299
0.84025,0.176101
0.8405,0.166697
0.84075,0.139837
0.841,0.111754
0.84125,0.0775905
0.8415,0.034744
0.84175,-0.012006
0.842,-0.0532334
0.84225,-0.0880206
0.8425,-0.12255
0.84275,-0.149403
0.843,-0.166136
0.84325,-0.181895
0.8435,-0.174017
0.84375,-0.172734
0.844,-0.156592
0.84425,-0.137404
0.8445,-0.119337
0.84475,-0.0981919
0.845,-0.0767033
0.84525,-0.0658913
0.8455,-0.0480192
0.84575,-0.0466951
0.846,-0.046392
0.84625,-0.0550147
0.8465,-0.0709088
0.84675,-0.090044
0.847,-0.104797
0.84725,-0.132068
0.8475,-0.143335
0.84775,-0.167196
0.848,-0.174961
0.84825,-0.179404
0.8485,-0.174965
0.84875,-0.166657
0.849,-0.138158
0.84925,-0.108393
0.8495,-0.0748832
0.84975,-0.0338691
0.85,0.00270611
0.85025,0.0451185
0.8505,0.0835781
0.85075,0.122517
0.851,0.152545
0.85125,0.174122
0.8515,0.183802
0.85175,0.192496
0.852,0.187123
0.85225,0.170876
0.8525,0.160669
0.85275,0.132652
0.853,0.117848
0.85325,0.094134
0.8535,0.0801571
0.85375,0.0663092
0.854,0.0574508
0.85425,0.0601433
0.8545,0.0594731
0.85475,0.0689922
0.855,0.0912666
0.85525,0.10609
0.8555,0.131303
0.85575,0.14703
0.856,0.17238
0.85625,0.18445
0.8565,0.190565
0.85675,1.85E-01
0.857,0.176766
0.85725,0.159941
0.8575,0.135053
0.85775,0.103295
0.858,0.0574363
0.85825,0.0172081
0.8585,-0.0246392
0.85875,-0.0681301
0.859,-0.0990681
0.85925,-0.130157
0.8595,-0.152502
0.85975,-0.174993
0.86,-0.17966
0.86025,-0.175344
0.8605,-0.165178
0.86075,-0.151666
0.861,-0.134221
0.86125,-0.109119
0.8615,-0.0957733
0.86175,-0.0693072
0.862,-0.0551448
0.86225,-0.051967
0.8625,-0.0406249
0.86275,-0.0437591
0.863,-0.0583238
0.86325,-0.0757592
0.8635,-0.0892481
0.86375,-0.115544
0.864,-0.136783
0.86425,-0.155221
0.8645,-0.170716
0.86475,-0.175466
0.865,-0.182531
0.86525,-0.172694
0.8655,-0.158996
0.86575,-0.130129
0.866,-0.10053
0.86625,-0.0589755
0.8665,-0.0261918
0.86675,0.0209155
0.867,0.0594657
0.86725,0.0969813
0.8675,0.132288
0.86775,0.163359
0.868,0.177632
0.86825,0.187746
0.8685,0.192336
0.86875,0.179547
0.869,0.172929
0.86925,0.152766
0.8695,0.134791
0.86975,0.11257
0.87,0.0933028
0.87025,0.0753768
0.8705,0.063724
0.87075,0.0505359
0.871,0.0538567
0.87125,0.0623404
0.8715,0.0755802
0.87175,0.0971198
0.872,0.113389
0.87225,0.133648
0.8725,0.155801
0.87275,0.178159
0.873,0.18236
0.87325,0.185093
0.8735,0.182752
0.87375,0.168432
0.874,0.148493
0.87425,0.123742
0.8745,0.0826889
0.87475,0.046842
0.875,0.00439652
0.87525,-0.0362464
0.8755,-0.0780362
0.87575,-0.114524
0.876,-0.136247
0.87625,-0.159278
0.8765,-0.173224
0.87675,-0.179647
0.877,-0.176553
0.87725,-0.16009
0.8775,-0.145497
0.87775,-0.129047
0.878,-0.10559
0.87825,-0.0900146
0.8785,-0.0627931
0.87875,-0.0565435
0.879,-0.049043
0.87925,-0.0404372
0.8795,-0.0474311
0.87975,-0.0593079
0.88,-0.0813308
0.88025,-0.0937321
0.8805,-0.123091
0.88075,-0.141208
0.881,-0.158599
0.88125,-0.167239
0.8815,-0.179487
0.88175,-0.174038
0.882,-0.16727
0.88225,-0.150554
0.8825,-0.122436
0.88275,-0.0845473
0.883,-0.0502996
0.88325,-0.0132799
0.8835,0.0333158
0.88375,0.0782918
0.884,0.106537
0.88425,0.137439
0.8845,0.162351
0.88475,0.185753
0.885,0.193057
0.88525,0.182348
0.8855,0.176006
0.88575,0.168059
0.886,0.146145
0.88625,0.119874
0.8865,0.0972563
0.88675,0.0819944
0.887,0.0684105
0.88725,0.0627526
0.8875,0.0528493
0.88775,0.0600952
0.888,0.0639306
0.88825,0.0858814
0.8885,0.101287
0.88875,0.126005
0.889,0.143282
0.88925,0.164975
0.8895,0.17658
0.88975,0.189583
0.89,0.191364
0.89025,0.179728
0.8905,0.165833
0.89075,0.143373
0.891,0.108773
0.89125,0.0785562
0.8915,0.0321496
0.89175,-0.00780156
0.892,-0.0483586
0.89225,-0.0866917
0.8925,-0.124839
0.89275,-0.148812
0.893,-0.164724
0.89325,-0.175093
0.8935,-0.178242
0.89375,-0.171514
0.894,-0.161511
0.89425,-0.139646
0.8945,-0.120191
0.89475,-0.0957858
0.895,-0.0789949
0.89525,-0.0623476
0.8955,-0.0474364
0.89575,-0.040785
0.896,-0.0421356
0.89625,-0.0564592
0.8965,-0.0673013
0.89675,-0.0823856
0.897,-0.109078
0.89725,-0.130138
0.8975,-0.143778
0.89775,-0.167831
0.898,-0.177168
0.89825,-0.174371
0.8985,-0.175305
0.89875,-0.16561
0.899,-0.145577
0.89925,-0.11035
0.8995,-0.0756151
0.89975,-0.0357132
0.9,0.00509917
0.90025,0.0458078
0.9005,0.0894313
0.90075,0.120652
0.901,0.153529
0.90125,0.174509
0.9015,0.181707
0.90175,0.1861
0.902,0.184692
0.90225,0.174135
0.9025,0.156428
0.90275,0.140666
0.903,0.120546
0.90325,0.0948275
0.9035,0.0758521
0.90375,0.0595878
0.904,0.0545594
0.90425,0.055846
0.9045,0.0628849
0.90475,0.0762142
0.905,0.0895694
0.90525,0.110649
0.9055,0.132967
0.90575,0.15586
0.906,0.173706
0.90625,0.177418
0.9065,0.185649
0.90675,0.186393
0.907,0.178972
0.90725,0.161515
0.9075,0.13532
0.90775,0.099503
0.908,0.055841
0.90825,0.0167944
0.9085,-0.0235814
0.90875,-0.0686646
0.909,-0.100759
0.90925,-0.129523
0.9095,-0.15742
0.90975,-0.167942
0.91,-0.174915
0.91025,-0.173509
0.9105,-0.167326
0.91075,-0.153793
0.911,-0.135454
0.91125,-0.109959
0.9115,-0.0947793
0.91175,-0.0773756
0.912,-0.0625599
0.91225,-0.0511056
0.9125,-0.0459533
0.91275,-0.046726
0.913,-0.0552705
0.91325,-0.0687416
0.9135,-0.0904151
0.91375,-0.113823
0.914,-0.135325
0.91425,-0.151216
0.9145,-0.166828
0.91475,-0.174534
0.915,-0.177055
0.91525,-0.169615
0.9155,-0.157811
0.91575,-0.13664
0.916,-0.104437
0.91625,-0.0609224
0.9165,-0.0198785
0.91675,0.0194498
0.917,0.0611362
0.91725,0.100048
0.9175,0.131263
0.91775,0.158825
0.918,0.181205
0.91825,0.184539
0.9185,0.189376
0.91875,0.18146
0.919,0.17118
0.91925,0.150037
0.9195,0.134861
0.91975,0.107578
0.92,0.0854752
0.92025,0.0704547
0.9205,0.0580316
0.92075,0.054258
0.921,0.057004
0.92125,0.0590022
0.9215,0.0773651
0.92175,0.0946522
0.922,0.116349
0.92225,0.140911
0.9225,0.161651
0.92275,0.170267
0.923,0.181515
0.92325,0.18574
0.9235,0.183696
0.92375,0.170258
0.924,0.146625
0.92425,0.124187
0.9245,0.0817495
0.92475,0.0473614
0.925,0.00281888
0.92525,-0.036469
0.9255,-0.0722406
0.92575,-0.113803
0.926,-0.140989
0.92625,-0.158371
0.9265,-0.178153
0.92675,-0.180787
0.927,-0.171875
0.92725,-0.167067
0.9275,-0.144936
0.92775,-0.132368
0.928,-0.109827
0.92825,-0.0845843
0.9285,-0.0664986
0.92875,-0.0558005
0.929,-0.0494841
0.92925,-0.0490739
0.9295,-0.0463991
0.92975,-0.061632
0.93,-0.0784028
0.93025,-0.0949511
0.9305,-0.115534
0.93075,-0.145178
0.931,-0.159025
0.93125,-0.174332
0.9315,-0.181803
0.93175,-0.172686
0.932,-0.163169
0.93225,-0.146485
0.9325,-0.120564
0.93275,-0.0916074
0.933,-0.0544115
0.93325,-0.00654475
0.9335,0.0286497
0.93375,0.0692048
0.934,0.107929
0.93425,0.140459
0.9345,0.166739
0.93475,0.185358
0.935,0.187476
0.93525,0.181717
0.9355,0.176011
0.93575,0.162016
0.936,0.147229
0.93625,0.122228
0.9365,0.102453
0.93675,0.0792479
0.937,0.0683916
0.93725,0.0616976
0.9375,0.0586434
0.93775,0.0540176
0.938,0.0711875
0.93825,0.0793649
0.9385,0.10054
0.93875,0.124063
0.939,0.146177
0.93925,0.163294
0.9395,0.177201
0.93975,0.185747
0.94,0.186088
0.94025,0.184395
0.9405,0.167769
0.94075,0.137687
0.941,0.106825
0.94125,0.0695608
0.9415,0.0327612
0.94175,-0.00984486
0.942,-0.050319
0.94225,-0.0940804
0.9425,-0.118147
0.94275,-0.147886
0.943,-0.163938
0.94325,-0.181577
0.9435,-0.178494
0.94375,-0.171691
0.944,-0.161662
0.94425,-0.140471
0.9445,-0.124028
0.94475,-0.0991783
0.945,-0.0812613
0.94525,-0.0615363
0.9455,-0.0559919
0.94575,-0.0427205
0.946,-0.0427096
0.94625,-0.0511457
0.9465,-0.0714691
0.94675,-0.0896206
0.947,-0.101549
0.94725,-0.126607
0.9475,-0.143637
0.94775,-0.164009
0.948,-0.176571
0.94825,-0.181597
0.9485,-0.174021
0.94875,-0.164796
0.949,-0.14348
0.94925,-0.1122
0.9495,-0.0769677
0.94975,-0.03887
0.95,0.00922646
0.95025,0.0470179
0.9505,0.087399
0.95075,0.119514
0.951,0.145932
0.95125,0.174988
0.9515,0.188901
0.95175,0.190841
0.952,0.186357
0.95225,0.175019
0.9525,0.161982
0.95275,0.139704
0.953,0.112393
0.95325,9.32E-02
0.9535,0.0766184
0.95375,0.0644429
0.954,0.056245
0.95425,0.0519652
0.9545,0.0623573
0.95475,0.0771034
0.955,0.0914735
0.95525,0.110307
0.9555,0.131917
0.95575,0.150203
0.956,0.164402
0.95625,0.179106
0.9565,0.187823
0.95675,0.1917
0.957,0.175268
0.95725,0.154676
0.9575,0.132419
0.95775,0.0969589
0.958,0.0638931
0.95825,0.0230274
0.9585,-0.0178115
0.95875,-0.066173
0.959,-0.103404
0.95925,-0.129521
0.9595,-0.156279
0.95975,-0.166701
0.96,-0.177893
0.96025,-0.178102
0.9605,-0.1687
0.96075,-0.152116
0.961,-0.132193
0.96125,-0.113578
0.9615,-0.0856596
0.96175,-0.0754626
0.962,-0.0569152
0.96225,-0.0442013
0.9625,-0.0434195
0.96275,-0.0434095
0.963,-0.0537867
0.96325,-0.0674916
0.9635,-0.0923989
0.96375,-0.115785
0.964,-0.136313
0.96425,-0.151112
0.9645,-0.163728
0.96475,-0.1793
0.965,-0.173753
0.96525,-0.17171
0.9655,-1.52E-01
0.96575,-0.132665
0.966,-0.098117
0.96625,-0.0591705
0.9665,-0.0200073
0.96675,0.0215802
0.967,0.0597669
0.96725,0.103007
0.9675,0.137953
0.96775,0.166367
0.968,0.181857
0.96825,0.189334
0.9685,0.1868
0.96875,0.187984
0.969,0.171612
0.96925,0.151155
0.9695,0.131181
0.96975,0.113751
0.97,0.0938949
0.97025,0.0763255
0.9705,0.0601369
0.97075,0.0612757
0.971,0.0608488
0.97125,0.0634036
0.9715,0.0838201
0.97175,0.0969393
0.972,0.124141
0.97225,0.145179
0.9725,0.156604
0.97275,0.181414
0.973,0.193897
0.97325,0.188446
0.9735,0.188036
0.97375,0.179992
0.974,0.159081
0.97425,0.128821
0.9745,0.0916909
0.97475,0.0514714
0.975,0.0137281
0.97525,-0.0268012
0.9755,-0.0671492
0.97575,-0.108457
0.976,-0.135505
0.97625,-0.151589
0.9765,-0.168756
0.97675,-0.175136
0.977,-0.171362
0.97725,-0.155961
0.9775,-0.139337
0.97775,-0.116705
0.978,-0.100455
0.97825,-0.082368
0.9785,-0.0585766
0.97875,-0.0476156
0.979,-0.0371702
0.97925,-0.0361184
0.9795,-0.0405443
0.97975,-0.0538668
0.98,-0.0729511
0.98025,-0.0926765
0.9805,-0.115253
0.98075,-0.129067
0.981,-0.147107
0.98125,-0.158617
0.9815,-0.174477
0.98175,-0.165695
0.982,-0.155741
0.98225,-0.139717
0.9825,-0.117256
0.98275,-0.0794513
0.983,-0.0383994
0.98325,-0.00251129
0.9835,0.0451752
0.98375,0.0827006
0.984,0.120674
0.98425,0.155943
0.9845,0.173394
0.98475,0.193042
0.985,0.204181
0.98525,0.193562
0.9855,0.189938
0.98575,0.172823
0.986,0.159991
0.98625,0.136294
0.9865,0.110959
0.98675,0.0950409
0.987,0.0799123
0.98725,0.0723841
0.9875,0.0709003
0.98775,0.0736497
0.988,0.0808839
0.98825,0.0943262
0.9885,0.111985
0.98875,0.140785
0.989,0.1577
0.98925,0.175516
0.9895,0.192006
0.98975,0.199784
0.99,0.203714
0.99025,0.200653
0.9905,0.183779
0.99075,0.156442
0.991,0.129325
0.99125,0.091518
0.9915,0.0478101
0.99175,0.0126931
0.992,-0.0375725
0.99225,-0.0728481
0.9925,-0.102491
0.99275,-0.12976
0.993,-0.148793
0.99325,-0.156896
0.9935,-0.154847
0.99375,-0.156711
0.994,-0.136596
0.99425,-0.117862
0.9945,-0.0963061
0.99475,-0.0822368
0.995,-0.0604464
0.99525,-3.91E-02
0.9955,-0.0264524
0.99575,-0.0194827
0.996,-0.0294331
0.99625,-0.0295932
0.9965,-0.0472253
0.99675,-0.058942
0.997,-0.0806401
0.99725,-0.106691
0.9975,-0.120074
0.99775,-0.140546
0.998,-0.153704
0.99825,-0.157554
0.9985,-0.149352
0.99875,-0.133662
0.999,-0.110593
0.99925,-0.0838423
0.9995,-0.0484196
0.99975,-0.00670576
1,0.0305733
1.00025,0.0770697
1.0005,0.115314
1.00075,0.15395
1.001,0.178971
1.00125,0.203409
1.0015,0.210798
1.00175,0.216074
1.002,0.217228
1.00225,0.201252
1.0025,0.188962
1.00275,0.17013
1.003,0.14368
1.00325,0.125771
1.0035,0.107973
1.00375,0.0984923
1.004,0.0939393
1.00425,0.0864149
1.0045,0.090885
1.00475,0.103037
1.005,0.12601
1.00525,0.147314
1.0055,0.166774
1.00575,0.189728
1.006,0.202658
1.00625,0.222292
1.0065,0.230202
1.00675,0.223198
1.007,0.213449
1.00725,0.196816
1.0075,0.17394
1.00775,0.139936
1.008,0.103951
1.00825,0.0552073
1.0085,0.0164565
1.00875,-0.0210065
1.009,-0.0548249
1.00925,-0.0858341
1.0095,-0.108866
1.00975,-0.129434
1.01,-0.131109
1.01025,-0.12788
1.0105,-0.12111
1.01075,-0.107878
1.011,-0.0903574
1.01125,-0.0696351
1.0115,-0.049817
1.01175,-0.0261479
1.012,-0.0131978
1.01225,0.00437253
1.0125,0.00100681
1.01275,-0.00338855
1.013,-0.00357993
1.01325,-0.0185041
1.0135,-0.0445532
1.01375,-0.0565488
1.014,-0.0846114
1.01425,-0.10018
1.0145,-0.109844
1.01475,-0.124084
1.015,-0.121197
1.01525,-0.111761
1.0155,-0.101024
1.01575,-0.0729122
1.016,-0.0450674
1.01625,-0.00928512
1.0165,0.0326939
1.01675,0.0733957
1.017,0.121013
1.01725,0.160569
1.0175,0.190515
1.01775,0.221024
1.018,0.24147
1.01825,0.246596
1.0185,0.251664
1.01875,0.245831
1.019,0.23592
1.01925,0.217493
1.0195,0.192192
1.01975,0.173061
1.02,0.155366
1.02025,0.143568
1.0205,0.133074
1.02075,0.125936
1.021,0.122284
1.02125,0.134924
1.0215,0.143844
1.02175,0.165082
1.022,0.186018
1.02225,0.208898
1.0225,0.232073
1.02275,0.250108
1.023,0.259489
1.02325,0.264674
1.0235,0.257268
1.02375,0.251885
1.024,0.225629
1.02425,0.201334
1.0245,0.165375
1.02475,0.123613
1.025,0.0824497
1.02525,0.0503646
1.0255,0.00980265
1.02575,-0.0267388
1.026,-0.0540167
1.02625,-0.0738702
1.0265,-0.0860427
1.02675,-0.0896867
1.027,-0.0868941
1.02725,-0.0766711
1.0275,-0.0575434
1.02775,-0.0317588
1.028,-0.0109364
1.02825,0.0108543
1.0285,0.0302185
1.02875,0.0378228
1.029,0.0436935
1.02925,0.04973
1.0295,0.0497357
1.02975,0.0328802
1.03,0.0159144
1.03025,0.00103368
1.0305,-0.0170888
1.03075,-0.0358056
1.031,-0.0592973
1.03125,-0.070553
1.0315,-0.0701327
1.03175,-0.0758691
1.032,-0.0627055
1.03225,-0.0428115
1.0325,-0.00963091
1.03275,0.0205279
1.033,0.0559896
1.03325,0.0979821
1.0335,0.143492
1.03375,0.18614
1.034,0.224148
1.03425,0.255833
1.0345,0.284448
1.03475,0.299743
1.035,0.308825
1.03525,0.30741
1.0355,0.299287
1.03575,0.280285
1.036,0.262187
1.03625,0.249238
1.0365,0.220729
1.03675,0.21241
1.037,0.193128
1.03725,0.187291
1.0375,0.181531
1.03775,0.18492
1.038,0.194844
1.03825,0.209254
1.0385,0.232291
1.03875,0.260004
1.039,0.282097
1.03925,0.301117
1.0395,0.317875
1.03975,0.326256
1.04,0.325924
1.04025,0.316402
1.0405,0.310492
1.04075,0.289098
1.041,0.251519
1.04125,0.219724
1.0415,0.178839
1.04175,0.139334
1.042,0.101908
1.04225,0.0577554
1.0425,0.0269596
1.04275,0.00676502
1.043,-0.0177707
1.04325,-0.0205522
1.0435,-0.0259241
1.04375,-0.0129666
1.044,-0.00194955
1.04425,0.0153702
1.0445,0.0422129
1.04475,0.0672847
1.045,0.0859678
1.04525,0.101443
1.0455,0.117622
1.04575,0.123268
1.046,0.116216
1.04625,0.114445
1.0465,0.10126
1.04675,0.0838298
1.047,0.062361
1.04725,0.045714
1.0475,0.0241792
1.04775,0.0147921
1.048,-0.000822012
1.04825,0.00238661
1.0485,0.00181065
1.04875,0.0157676
1.049,0.0443082
1.04925,0.0700807
1.0495,0.111002
1.04975,0.15279
1.05,0.195654
1.05025,0.237945
1.0505,0.276462
1.05075,0.3146
1.051,0.343605
1.05125,0.366263
1.0515,0.38348
1.05175,0.385332
1.052,0.383475
1.05225,0.375591
1.0525,0.356301
1.05275,0.336845
1.053,0.31933
1.05325,0.299683
1.0535,0.281216
1.05375,0.27392
1.054,0.262698
1.05425,0.268132
1.0545,0.275418
1.05475,0.286725
1.055,0.300648
1.05525,0.324818
1.0555,0.348841
1.05575,0.369011
1.056,0.387807
1.05625,0.400663
1.0565,0.414469
1.05675,0.412668
1.057,0.406094
1.05725,0.38424
1.0575,0.359229
1.05775,0.327767
1.058,0.29691
1.05825,0.254484
1.0585,0.216055
1.05875,0.178913
1.059,0.136293
1.05925,0.112915
1.0595,0.0905017
1.05975,0.0770615
1.06,0.069267
1.06025,0.0691843
1.0605,0.0854687
1.06075,0.0937683
1.061,0.116528
1.06125,0.14087
1.0615,0.160697
1.06175,0.185746
1.062,0.201894
1.06225,0.20911
1.0625,0.219789
1.06275,0.217441
1.063,0.205299
1.06325,0.198457
1.0635,0.174069
1.06375,0.159485
1.064,0.132682
1.06425,0.115154
1.0645,0.10637
1.06475,0.0971928
1.065,0.104509
1.06525,0.112547
1.0655,0.127926
1.06575,0.149721
1.066,0.184821
1.06625,0.222806
1.0665,0.266333
1.06675,0.306471
1.067,0.354689
1.06725,0.392579
1.0675,0.422655
1.06775,0.45371
1.068,0.479444
1.06825,0.487155
1.0685,0.489722
1.06875,0.480327
1.069,0.473442
1.06925,0.46049
1.0695,0.443386
1.06975,0.418586
1.07,0.395765
1.07025,0.384848
1.0705,0.376086
1.07075,0.37432
1.071,0.374268
1.07125,0.388164
1.0715,0.40355
1.07175,0.414493
1.072,0.444387
1.07225,0.464636
1.0725,0.485358
1.07275,0.505219
1.073,0.512659
1.07325,0.520619
1.0735,0.519618
1.07375,0.506107
1.074,0.488854
1.07425,0.468252
1.0745,0.433544
1.07475,0.393597
1.075,0.354764
1.07525,0.316304
1.0755,0.27214
1.07575,0.235737
1.076,0.215378
1.07625,0.189383
1.0765,0.182385
1.07675,0.183993
1.077,0.190413
1.07725,0.202549
1.0775,0.212469
1.07775,0.243825
1.078,0.25846
1.07825,0.283038
1.0785,0.30593
1.07875,0.319458
1.079,0.326183
1.07925,0.333709
1.0795,0.323331
1.07975,0.323302
1.08,0.307231
1.08025,0.281406
1.0805,0.269345
1.08075,0.251385
1.081,0.226815
1.08125,0.224417
1.0815,0.213514
1.08175,0.21552
1.082,0.226617
1.08225,0.254019
1.0825,0.274908
1.08275,0.313191
1.083,0.352884
1.08325,0.399254
1.0835,0.437525
1.08375,0.479527
1.084,0.527624
1.08425,0.554732
1.0845,0.578195
1.08475,0.600344
1.085,0.608313
1.08525,0.612896
1.0855,0.59787
1.08575,0.582989
1.086,0.567422
1.08625,0.546844
1.0865,0.529333
1.08675,0.516775
1.087,0.503689
1.08725,0.498979
1.0875,0.491506
1.08775,0.502606
1.088,0.506638
1.08825,0.522115
1.0885,0.550506
1.08875,0.56634
1.089,0.589963
1.08925,0.613938
1.0895,0.629417
1.08975,0.640921
1.09,0.642616
1.09025,0.635333
1.0905,0.623013
1.09075,0.606114
1.091,0.578374
1.09125,0.538809
1.0915,0.50391
1.09175,0.455785
1.092,0.416514
1.09225,0.379316
1.0925,0.356769
1.09275,0.33115
1.093,0.314642
1.09325,0.300791
1.0935,0.307119
1.09375,0.308059
1.094,0.321511
1.09425,0.349992
1.0945,0.367669
1.09475,0.395517
1.095,0.417828
1.09525,0.429442
1.0955,0.449043
1.09575,0.452931
1.096,0.451435
1.09625,0.443684
1.0965,0.43756
1.09675,0.418001
1.097,0.404776
1.09725,0.37588
1.0975,0.366277
1.09775,0.351984
1.098,0.336197
1.09825,0.333634
1.0985,0.34683
1.09875,0.353263
1.099,0.380148
1.09925,0.411331
1.0995,0.447675
1.09975,0.488163
1.1,0.527351
1.10025,0.574649
1.1005,0.613852
1.10075,0.654472
1.101,0.683048
1.10125,0.711306
1.1015,0.719387
1.10175,0.726246
1.102,0.73028
1.10225,0.712797
1.1025,0.699883
1.10275,0.685623
1.103,0.659881
1.10325,0.648238
1.1035,0.623631
1.10375,0.617339
1.104,0.608306
1.10425,0.610493
1.1045,0.616119
1.10475,0.629052
1.105,0.646354
1.10525,0.67496
1.1055,0.692674
1.10575,0.716235
1.106,0.737205
1.10625,0.751542
1.1065,0.756969
1.10675,0.754455
1.107,0.750185
1.10725,0.738536
1.1075,0.713155
1.10775,0.680588
1.108,0.643716
1.10825,0.595788
1.1085,0.555584
1.10875,0.524963
1.109,0.488215
1.10925,0.452148
1.1095,0.436061
1.10975,0.418139
1.11,0.413366
1.11025,0.412506
1.1105,0.425078
1.11075,0.439617
1.111,0.460534
1.11125,0.490969
1.1115,0.508544
1.11175,0.529248
1.112,0.550177
1.11225,0.554468
1.1125,0.562656
1.11275,0.558128
1.113,0.55313
1.11325,0.534814
1.1135,0.522014
1.11375,0.496437
1.114,0.479578
1.11425,0.459625
1.1145,0.451669
1.11475,0.447123
1.115,0.441057
1.11525,0.447738
1.1155,0.466872
1.11575,0.490677
1.116,0.525233
1.11625,0.56573
1.1165,0.603254
1.11675,0.650489
1.117,0.691958
1.11725,0.727319
1.1175,0.763839
1.11775,0.789988
1.118,0.813951
1.11825,0.824239
1.1185,0.831391
1.11875,0.82024
1.119,0.809074
1.11925,0.794526
1.1195,0.77492
1.11975,0.754322
1.12,0.730082
1.12025,0.723586
1.1205,0.705778
1.12075,0.700718
1.121,0.709835
1.12125,0.711301
1.1215,0.731158
1.12175,0.75182
1.122,0.771513
1.12225,0.79162
1.1225,0.81239
1.12275,0.834559
1.123,0.846982
1.12325,0.852888
1.1235,0.84714
1.12375,0.836473
1.124,0.812148
1.12425,0.787448
1.1245,0.75061
1.12475,0.711902
1.125,0.667507
1.12525,0.628193
1.1255,0.587402
1.12575,0.560127
1.126,0.530636
1.12625,0.512595
1.1265,0.496374
1.12675,0.488501
1.127,0.499459
1.12725,0.511838
1.1275,0.525014
1.12775,0.552609
1.128,0.567626
1.12825,0.58689
1.1285,0.60921
1.12875,0.628688
1.129,0.632634
1.12925,0.631431
1.1295,0.627756
1.12975,0.615134
1.13,0.606228
1.13025,0.579598
1.1305,0.559876
1.13075,0.540195
1.131,0.523483
1.13125,0.515453
1.1315,0.507746
1.13175,0.509071
1.132,0.523168
1.13225,0.538908
1.1325,0.569364
1.13275,0.596409
1.133,0.642481
1.13325,0.684478
1.1335,0.727175
1.13375,0.767564
1.134,0.804061
1.13425,0.834663
1.1345,0.861035
1.13475,0.872939
1.135,0.877142
1.13525,0.879456
1.1355,0.87088
1.13575,0.861663
1.136,0.837024
1.13625,0.812631
1.1365,0.796426
1.13675,0.776282
1.137,0.761171
1.13725,0.754821
1.1375,0.746258
1.13775,0.751229
1.138,0.761866
1.13825,0.783721
1.1385,0.794909
1.13875,0.824475
1.139,0.843995
1.13925,0.860561
1.1395,0.876801
1.13975,0.885845
1.14,0.8895
1.14025,0.876663
1.1405,0.865244
1.14075,0.841736
1.141,0.81155
1.14125,0.767129
1.1415,0.732723
1.14175,0.693339
1.142,0.643702
1.14225,0.604471
1.1425,0.577698
1.14275,0.551411
1.143,0.525445
1.14325,0.516709
1.1435,0.51417
1.14375,0.520676
1.144,0.540297
1.14425,0.5533
1.1445,0.576924
1.14475,0.599226
1.145,0.621284
1.14525,0.62885
1.1455,0.648577
1.14575,0.649256
1.146,0.644603
1.14625,0.636818
1.1465,0.62855
1.14675,0.611382
1.147,0.584675
1.14725,0.562785
1.1475,0.550512
1.14775,0.529296
1.148,0.515812
1.14825,0.516417
1.1485,0.514697
1.14875,0.52787
1.149,0.552448
1.14925,0.575673
1.1495,0.616963
1.14975,0.651671
1.15,0.693596
1.15025,0.736456
1.1505,0.778689
1.15075,0.810274
1.151,0.839042
1.15125,0.852783
1.1515,0.8701
1.15175,0.875247
1.152,0.86329
1.15225,0.853547
1.1525,0.835056
1.15275,0.81931
1.153,0.794852
1.15325,0.770548
1.1535,0.752844
1.15375,0.74631
1.154,0.733253
1.15425,0.734709
1.1545,0.731939
1.15475,0.745769
1.155,0.76521
1.15525,0.777657
1.1555,0.805432
1.15575,0.82103
1.156,0.839615
1.15625,0.846474
1.1565,0.852243
1.15675,0.853723
1.157,0.848367
1.15725,0.827736
1.1575,0.799843
1.15775,0.765404
1.158,0.727114
1.15825,0.679987
1.1585,0.637759
1.15875,0.597432
1.159,0.560621
1.15925,0.528707
1.1595,0.500432
1.15975,0.479152
1.16,0.470904
1.16025,0.472771
1.1605,0.48727
1.16075,0.493788
1.161,0.510152
1.16125,0.530774
1.1615,0.552762
1.16175,0.572479
1.162,0.582592
1.16225,0.594607
1.1625,0.59665
1.16275,0.586132
1.163,0.58117
1.16325,0.563846
1.1635,0.545859
1.16375,0.521149
1.164,0.495986
1.16425,0.476252
1.1645,0.465035
1.16475,0.447182
1.165,0.450637
1.16525,0.450031
1.1655,0.471368
1.16575,0.491276
1.166,0.518758
1.16625,0.550866
1.1665,0.588361
1.16675,0.628682
1.167,0.671177
1.16725,0.710722
1.1675,0.74631
1.16775,0.76441
1.168,0.779299
1.16825,0.795227
1.1685,0.790581
1.16875,0.781366
1.169,0.768512
1.16925,0.752207
1.1695,0.722714
1.16975,0.698183
1.17,0.676411
1.17025,0.660647
1.1705,0.648844
1.17075,0.643489
1.171,0.638681
1.17125,0.649034
1.1715,0.656127
1.17175,0.671241
1.172,0.696318
1.17225,0.714022
1.1725,0.725577
1.17275,0.746215
1.173,0.756386
1.17325,0.75757
1.1735,0.746049
1.17375,0.738882
1.174,0.713895
1.17425,0.677585
1.1745,0.643835
1.17475,0.60458
1.175,0.558958
1.17525,0.517153
1.1755,0.475296
1.17575,0.431109
1.176,0.402637
1.17625,0.383481
1.1765,0.361507
1.17675,0.36039
1.177,0.355299
1.17725,0.364058
1.1775,0.385382
1.17775,0.397762
1.178,0.415064
1.17825,0.437006
1.1785,0.453504
1.17875,0.462613
1.179,0.469306
1.17925,0.469652
1.1795,0.457949
1.17975,0.450275
1.18,0.423464
1.18025,0.401483
1.1805,0.37886
1.18075,0.362937
1.181,0.335185
1.18125,0.322969
1.1815,0.317564
1.18175,0.310781
1.182,0.315466
1.18225,0.34017
1.1825,0.361867
1.18275,0.385133
1.183,0.422296
1.18325,0.467873
1.1835,0.50354
1.18375,0.54265
1.184,0.57547
1.18425,0.60138
1.1845,0.62474
1.18475,0.640687
1.185,0.645585
1.18525,0.634862
1.1855,0.624193
1.18575,0.610752
1.186,0.590354
1.18625,0.567739
1.1865,0.539154
1.18675,0.515011
1.187,0.505189
1.18725,0.491208
1.1875,0.482634
1.18775,0.480783
1.188,0.489104
1.18825,0.504779
1.1885,0.519988
1.18875,0.532987
1.189,0.558067
1.18925,0.575407
1.1895,0.582485
1.18975,0.589005
1.19,0.590227
1.19025,0.582236
1.1905,0.561919
1.19075,0.530014
1.191,0.503408
1.19125,0.457527
1.1915,0.417153
1.19175,0.375934
1.192,0.329197
1.19225,0.282426
1.1925,0.246868
1.19275,0.217639
1.193,0.195273
1.19325,0.185972
1.1935,0.177413
1.19375,0.182313
1.194,0.193135
1.19425,0.21071
1.1945,0.22462
1.19475,0.248127
1.195,0.26094
1.19525,0.273648
1.1955,0.289514
1.19575,0.289817
1.196,0.285686
1.19625,0.27106
1.1965,0.261102
1.19675,0.237937
1.197,0.214102
1.19725,0.187572
1.1975,0.166012
1.19775,0.142548
1.198,0.130535
1.19825,0.128361
1.1985,0.129722
1.19875,0.13595
1.199,0.14808
1.19925,0.182661
1.1995,0.208069
1.19975,0.243884
1.2,0.282813
1.20025,0.323097
1.2005,0.358866
1.20075,0.396839
1.201,0.420668
1.20125,0.438433
1.2015,0.449545
1.20175,0.446886
1.202,0.441063
1.20225,0.428257
1.2025,0.402508
1.20275,0.38334
1.203,0.357784
1.20325,0.333388
1.2035,0.312475
1.20375,0.298211
1.204,0.288097
1.20425,0.286325
1.2045,0.290414
1.20475,0.295319
1.205,0.308793
1.20525,0.321232
1.2055,0.344071
1.20575,0.356842
1.206,0.373868
1.20625,0.386266
1.2065,0.3912
1.20675,0.387191
1.207,0.36716
1.20725,0.348078
1.2075,0.31635
1.20775,0.287034
1.208,0.242066
1.20825,0.195918
1.2085,0.146241
1.20875,0.106655
1.209,0.0681338
1.20925,0.0298042
1.2095,0.00660154
1.20975,-0.0144801
1.21,-0.0187606
1.21025,-0.0288623
1.2105,-0.0153396
1.21075,-0.00854841
1.211,0.00580166
1.21125,0.0217944
1.2115,0.0463036
1.21175,0.0590194
1.212,0.0709289
1.21225,0.0786319
1.2125,0.0815824
1.21275,0.0746876
1.213,0.0571664
1.21325,0.0452838
1.2135,0.0199358
1.21375,-0.00391083
1.214,-0.0298924
1.21425,-0.0463465
1.2145,-0.0708666
1.21475,-0.0835089
1.215,-0.083009
1.21525,-0.0852152
1.2155,-0.0713792
1.21575,-0.0507621
1.216,-0.0195563
1.21625,0.00975266
1.2165,0.0481855
1.21675,0.0948594
1.217,0.128955
1.21725,0.168785
1.2175,0.196075
1.21775,0.213963
1.218,0.233803
1.21825,0.24075
1.2185,0.235327
1.21875,0.224454
1.219,0.21229
1.21925,0.19415
1.2195,0.163593
1.21975,0.143229
1.22,0.116923
1.22025,0.102594
1.2205,0.084786
1.22075,0.0740115
1.221,0.0767588
1.22125,0.0798548
1.2215,0.0902912
1.22175,0.103556
1.222,0.118686
1.22225,0.144594
1.2225,0.156553
1.22275,0.167716
1.223,0.177708
1.22325,0.185469
1.2235,0.173397
1.22375,0.163548
1.224,0.131282
1.22425,0.104124
1.2245,0.0624452
1.22475,0.0204097
1.225,-0.021328
1.22525,-0.0720075
1.2255,-0.112114
1.22575,-0.14646
1.226,-0.180281
1.22625,-0.20514
1.2265,-0.216933
1.22675,-0.22202
1.227,-0.223211
1.22725,-0.219297
1.2275,-0.204139
1.22775,-0.184459
1.228,-0.165401
1.22825,-0.145943
1.2285,-0.130641
1.22875,-0.119213
1.229,-0.117625
1.22925,-0.120904
1.2295,-0.12432
1.22975,-0.143755
1.23,-0.164923
1.23025,-0.1792
1.2305,-0.2028
1.23075,-0.231802
1.231,-0.25265
1.23125,-0.264573
1.2315,-0.275214
1.23175,-0.273141
1.232,-0.266487
1.23225,-0.250427
1.2325,-0.231874
1.23275,-0.204225
1.233,-0.166506
1.23325,-0.129633
1.2335,-0.0845942
1.23375,-0.0430932
1.234,-0.00978187
1.23425,0.021136
1.2345,0.0366982
1.23475,0.0495641
1.235,0.0526936
1.23525,0.0538731
1.2355,0.0424207
1.23575,0.0216353
1.236,-0.00264371
1.23625,-0.0174902
1.2365,-0.0436989
1.23675,-0.0690662
1.237,-0.0788071
1.23725,-0.0911391
1.2375,-0.103147
1.23775,-0.0962986
1.238,-0.087712
1.23825,-0.0836098
1.2385,-0.0614763
1.23875,-0.0400472
1.239,-0.0221158
1.23925,-0.00948694
1.2395,0.00538364
1.23975,0.00955321
1.24,0.006498
1.24025,0.0053102
1.2405,-0.0186707
1.24075,-0.0411797
1.241,-0.0711358
1.24125,-0.113905
1.2415,-0.154875
1.24175,-0.206013
1.242,-0.240586
1.24225,-0.282285
1.2425,-0.324607
1.24275,-3.45E-01
1.243,-0.365281
1.24325,-0.383424
1.2435,-0.385945
1.24375,-0.375469
1.244,-0.367226
1.24425,-0.352134
1.2445,-0.335939
1.24475,-0.316419
1.245,-0.296251
1.24525,-0.280236
1.2455,-0.268113
1.24575,-0.267698
1.246,-0.266237
1.24625,-0.276844
1.2465,-0.298632
1.24675,-0.317296
1.247,-0.34178
1.24725,-0.362506
1.2475,-0.37715
1.24775,-0.399942
1.248,-0.408598
1.24825,-0.42239
1.2485,-0.41958
1.24875,-0.40915
1.249,-0.386186
1.24925,-0.356495
1.2495,-0.3271
1.24975,-0.289433
1.25,-0.245313
1.25025,-0.200371
1.2505,-0.161544
1.25075,-0.134639
1.251,-0.101321
1.25125,-0.0880705
1.2515,-0.0780429
1.25175,-0.0678915
1.252,-0.0760016
1.25225,-0.0859333
1.2525,-0.10802
1.25275,-0.128497
1.253,-0.154407
1.25325,-0.16859
1.2535,-0.187855
1.25375,-0.20065
1.254,-0.2101
1.25425,-0.215519
1.2545,-0.208794
1.25475,-0.201829
1.255,-0.185427
1.25525,-0.163725
1.2555,-0.150571
1.25575,-0.131518
1.256,-0.107479
1.25625,-0.101009
1.2565,-0.0943829
1.25675,-0.0938042
1.257,-0.106407
1.25725,-0.125856
1.2575,-0.153087
1.25775,-0.189763
1.258,-0.22671
1.25825,-0.26944
1.2585,-0.308281
1.25875,-0.350133
1.259,-0.389268
1.25925,-0.418575
1.2595,-0.447611
1.25975,-0.463011
1.26,-0.475763
1.26025,-0.472902
1.2605,-0.462828
1.26075,-0.446692
1.261,-0.430649
1.26125,-0.405327
1.2615,-0.388388
1.26175,-0.374941
1.262,-0.355927
1.26225,-0.343892
1.2625,-0.340115
1.26275,-0.345176
1.263,-0.355326
1.26325,-0.375741
1.2635,-0.389964
1.26375,-0.41425
1.264,-0.436899
1.26425,-0.459828
1.2645,-0.470376
1.26475,-0.476365
1.265,-0.479905
1.26525,-0.473181
1.2655,-0.464787
1.26575,-0.434771
1.266,-0.405317
1.26625,-0.368227
1.2665,-0.327726
1.26675,-0.288235
1.267,-0.246398
1.26725,-0.21234
1.2675,-0.175885
1.26775,-0.153122
1.268,-0.129626
1.26825,-0.117739
1.2685,-0.117809
1.26875,-0.130874
1.269,-0.135403
1.26925,-0.154729
1.2695,-0.182356
1.26975,-0.19924
1.27,-0.221155
1.27025,-0.236664
1.2705,-0.244014
1.27075,-0.252671
1.271,-0.249708
1.27125,-0.245562
1.2715,-0.226759
1.27175,-0.214653
1.272,-0.190009
1.27225,-0.170265
1.2725,-0.152082
1.27275,-0.135307
1.273,-0.121794
1.27325,-0.118696
1.2735,-0.120239
1.27375,-0.1309
1.274,-0.152853
1.27425,-0.185665
1.2745,-0.215974
1.27475,-0.254226
1.275,-0.300882
1.27525,-0.345423
1.2755,-0.380798
1.27575,-0.417465
1.276,-0.441994
1.27625,-0.464814
1.2765,-0.474973
1.27675,-0.475438
1.277,-0.475258
1.27725,-0.467045
1.2775,-0.451418
1.27775,-0.430505
1.278,-0.409321
1.27825,-0.378299
1.2785,-0.363144
1.27875,-0.354043
1.279,-0.344751
1.27925,-0.345025
1.2795,-0.345497
1.27975,-0.35848
1.28,-0.370941
1.28025,-0.394354
1.2805,-0.416732
1.28075,-0.428512
1.281,-0.4539
1.28125,-0.463609
1.2815,-0.463585
1.28175,-0.463816
1.282,-0.453002
1.28225,-0.4393
1.2825,-0.403896
1.28275,-0.372957
1.283,-0.334389
1.28325,-0.28766
1.2835,-0.252482
1.28375,-0.21103
1.284,-0.16679
1.28425,-0.139348
1.2845,-0.109251
1.28475,-0.0982027
1.285,-0.0870652
1.28525,-0.0925648
1.2855,-0.0994516
1.28575,-0.111191
1.286,-0.125294
1.28625,-0.147804
1.2865,-0.164605
1.28675,-0.182341
1.287,-0.205191
1.28725,-0.209667
1.2875,-0.206881
1.28775,-0.211282
1.288,-0.197013
1.28825,-0.178572
1.2885,-0.163223
1.28875,-0.13307
1.289,-0.118807
1.28925,-0.0902829
1.2895,-0.0793031
1.28975,-0.0658279
1.29,-0.0653772
1.29025,-0.0685061
1.2905,-0.0903634
1.29075,-0.111274
1.291,-0.138627
1.29125,-0.169121
1.2915,-0.214017
1.29175,-0.253415
1.292,-0.298149
1.29225,-0.332963
1.2925,-0.359135
1.29275,-0.387064
1.293,-0.410478
1.29325,-0.414549
1.2935,-0.416738
1.29375,-0.410868
1.294,-0.391381
1.29425,-0.36768
1.2945,-0.348803
1.29475,-0.325264
1.295,-0.303392
1.29525,-0.288952
1.2955,-0.278852
1.29575,-0.267518
1.296,-0.271603
1.29625,-0.275379
1.2965,-0.287064
1.29675,-0.302896
1.297,-0.31934
1.29725,-0.336038
1.2975,-0.362613
1.29775,-0.377358
1.298,-0.382969
1.29825,-0.389494
1.2985,-0.383555
1.29875,-0.36403
1.299,-0.344697
1.29925,-0.315587
1.2995,-0.275943
1.29975,-0.232467
1.3,-0.18852
1.30025,-0.151377
1.3005,-0.106147
1.30075,-0.0722558
1.301,-0.0381478
1.30125,-0.0146995
1.3015,-0.00371645
1.30175,-0.000341213
1.302,0.00173907
1.30225,-0.00456028
1.3025,-0.0268144
1.30275,-0.0355741
1.303,-0.0563891
1.30325,-0.0778493
1.3035,-9.75E-02
1.30375,-0.108961
1.304,-0.111936
1.30425,-0.108707
1.3045,-0.108638
1.30475,-0.0877409
1.305,-0.0722468
1.30525,-0.0557455
1.3055,-0.0277819
1.30575,-0.00652485
1.306,0.0142055
1.30625,0.0254829
1.3065,0.0370488
1.30675,0.0414124
1.307,0.0313376
1.30725,0.0140255
1.3075,-0.00936366
1.30775,-0.047789
1.308,-0.0783637
1.30825,-0.11856
1.3085,-0.164214
1.30875,-0.197222
1.309,-0.235669
1.30925,-0.258671
1.3095,-0.282864
1.30975,-0.293899
1.31,-0.299634
1.31025,-0.299497
1.3105,-0.289238
1.31075,-0.270038
1.311,-0.249117
1.31125,-0.22603
1.3115,-0.20628
1.31175,-0.185964
1.312,-0.167595
1.31225,-0.158221
1.3125,-0.151193
1.31275,-0.154497
1.313,-0.164192
1.31325,-0.17803
1.3135,-0.188804
1.31375,-0.20855
1.314,-0.227318
1.31425,-0.243224
1.3145,-0.2556
1.31475,-0.269562
1.315,-0.267615
1.31525,-0.257155
1.3155,-0.241308
1.31575,-0.210985
1.316,-0.177865
1.31625,-0.140597
1.3165,-0.100844
1.31675,-0.0592653
1.317,-0.0120698
1.31725,0.0250678
1.3175,0.0591547
1.31775,0.0885733
1.318,0.115873
1.31825,0.124166
1.3185,0.121517
1.31875,0.122238
1.319,0.111088
1.31925,0.0982268
1.3195,0.0739158
1.31975,0.0539307
1.32,0.0364388
1.32025,0.0203319
1.3205,0.0119734
1.32075,0.0089908
1.321,0.0131459
1.32125,0.0255663
1.3215,0.0338817
1.32175,0.0546226
1.322,0.0805396
1.32225,0.106673
1.3225,0.12821
1.32275,0.139171
1.323,0.153237
1.32325,0.16554
1.3235,0.159287
1.32375,0.148833
1.324,0.133329
1.32425,0.0980779
1.3245,0.065744
1.32475,0.0272804
1.325,-0.00847599
1.32525,-0.0540702
1.3255,-0.0876098
1.32575,-0.125161
1.326,-0.14963
1.32625,-0.172059
1.3265,-0.174934
1.32675,-0.178016
1.327,-0.173921
1.32725,-0.161505
1.3275,-0.141031
1.32775,-0.118005
1.328,-0.0940215
1.32825,-0.072582
1.3285,-0.0587192
1.32875,-0.0411234
1.329,-0.0355491
1.32925,-0.0267257
1.3295,-0.029965
1.32975,-0.0451131
1.33,-0.0623698
1.33025,-0.0742502
1.3305,-0.0971706
1.33075,-0.118256
1.331,-0.129511
1.33125,-0.139422
1.3315,-0.146517
1.33175,-0.145521
1.332,-0.135802
1.33225,-0.111985
1.3325,-0.0804108
1.33275,-0.0544197
1.333,-0.00599947
1.33325,0.0294226
1.3335,0.0792122
1.33375,0.115748
1.334,0.157697
1.33425,0.187545
1.3345,0.215652
1.33475,0.236229
1.335,0.240505
1.33525,0.239189
1.3355,0.238477
1.33575,0.220248
1.336,0.201579
1.33625,0.18688
1.3365,0.16169
1.33675,0.148339
1.337,0.130089
1.33725,0.123134
1.3375,0.119157
1.33775,0.131791
1.338,0.135507
1.33825,0.155547
1.3385,0.172095
1.33875,0.197266
1.339,0.219899
1.33925,0.236108
1.3395,0.259308
1.33975,0.266641
1.34,0.26547
1.34025,0.264763
1.3405,0.254393
1.34075,0.231929
1.341,0.198553
1.34125,0.157985
1.3415,0.126468
1.34175,0.0781803
1.342,0.0439727
1.34225,0.00130816
1.3425,-0.031902
1.34275,-0.0534944
1.343,-0.0659184
1.34325,-0.0812962
1.3435,-0.0764683
1.34375,-0.073156
1.344,-0.0521422
1.34425,-0.0404688
1.3445,-0.0164933
1.34475,0.00324564
1.345,0.0322357
1.34525,0.0452576
1.3455,0.0600124
1.34575,0.0604004
1.346,0.060438
1.34625,0.0624303
1.3465,0.0444401
1.34675,0.0339889
1.347,0.00862387
1.34725,-0.0148895
1.3475,-0.0333656
1.34775,-0.0452251
1.348,-0.0507346
1.34825,-0.0535354
1.3485,-0.0539406
1.34875,-0.0439411
1.349,-0.0125782
1.34925,0.0162856
1.3495,0.0524533
1.34975,0.0877045
1.35,0.12759
1.35025,0.176972
1.3505,0.218997
1.35075,0.251949
1.351,0.281771
1.35125,0.304209
1.3515,0.321804
1.35175,0.319643
1.352,0.317693
1.35225,0.304237
1.3525,0.290215
1.35275,0.276404
1.353,0.257869
1.35325,0.230936
1.3535,0.213765
1.35375,0.20786
1.354,0.200652
1.35425,0.195659
1.3545,0.207319
1.35475,0.212918
1.355,0.23022
1.35525,0.252967
1.3555,0.270053
1.35575,0.296421
1.356,0.317651
1.35625,0.323726
1.3565,0.332509
1.35675,0.330442
1.357,0.325584
1.35725,0.307229
1.3575,0.280426
1.35775,0.245589
1.358,0.21304
1.35825,0.165768
1.3585,0.126285
1.35875,0.0877079
1.359,0.0484913
1.35925,0.0174701
1.3595,-0.00492704
1.35975,-0.0130192
1.36,-0.0201852
1.36025,-0.0263503
1.3605,-0.0110064
1.36075,0.00540668
1.361,0.01941
1.36125,0.038983
1.3615,0.0620037
1.36175,0.0801845
1.362,0.0958692
1.36225,0.106621
1.3625,0.118076
1.36275,0.114677
1.363,0.0968191
1.36325,0.0841467
1.3635,0.0636135
1.36375,0.0512977
1.364,0.0256637
1.36425,0.00671834
1.3645,-0.00446506
1.36475,-0.0126184
1.365,-0.0154366
1.36525,-0.0102656
1.3655,0.00950414
1.36575,0.0271226
1.366,0.0659252
1.36625,0.0989545
1.3665,0.134043
1.36675,0.17745
1.367,0.219719
1.36725,0.265102
1.3675,0.299281
1.36775,0.324929
1.368,0.343752
1.36825,0.346828
1.3685,0.346218
1.36875,0.345151
1.369,0.329737
1.36925,0.312364
1.3695,0.293982
1.36975,0.270772
1.37,0.254983
1.37025,0.231512
1.3705,0.224003
1.37075,0.222542
1.371,0.220135
1.37125,0.224
1.3715,0.23551
1.37175,0.255248
1.372,0.276116
1.37225,0.300167
1.3725,0.323376
1.37275,0.339623
1.373,0.347507
1.37325,0.351286
1.3735,0.342987
1.37375,0.335401
1.374,0.307587
1.37425,0.282666
1.3745,0.250667
1.37475,0.209663
1.375,0.166259
1.37525,0.121239
1.3755,0.0792105
1.37575,0.0487144
1.376,0.0168766
1.37625,-0.00779232
1.3765,-0.0178114
1.37675,-0.0200163
1.377,-0.018006
1.37725,-0.00555558
1.3775,0.0072452
1.37775,0.0315669
1.378,0.0454871
1.37825,0.0715502
1.3785,0.0862798
1.37875,0.103405
1.379,0.107516
1.37925,0.106991
1.3795,0.103678
1.37975,0.0870758
1.38,0.0786706
1.38025,0.0583413
1.3805,0.0349617
1.38075,0.0103841
1.381,-0.00815963
1.38125,-0.0239124
1.3815,-0.0271703
1.38175,-0.0255678
1.382,-0.0177195
1.38225,-0.00457903
1.3825,0.0264312
1.38275,0.0539128
1.383,0.0974589
1.38325,0.138169
1.3835,0.181825
1.38375,0.217964
1.384,0.253633
1.38425,0.284555
1.3845,0.30964
1.38475,0.3259
1.385,0.330915
1.38525,0.331296
1.3855,0.322732
1.38575,0.303501
1.386,0.283137
1.38625,0.25818
1.3865,0.236439
1.38675,0.215673
1.387,0.204494
1.38725,0.196912
1.3875,0.190782
1.38775,0.191886
1.388,0.20622
1.38825,0.21659
1.3885,0.232272
1.38875,0.256213
1.389,0.272667
1.38925,0.291047
1.3895,0.306955
1.38975,0.317033
1.39,0.314043
1.39025,0.305547
1.3905,0.289256
1.39075,0.269478
1.391,0.234516
1.39125,0.198136
1.3915,0.156115
1.39175,0.116988
1.392,0.0674553
1.39225,0.0347055
1.3925,-0.000441798
1.39275,-0.0317879
1.393,-0.0528364
1.39325,-0.060302
1.3935,-0.0648555
1.39375,-0.0606095
1.394,-0.0463962
1.39425,-0.0234052
1.3945,-0.00718644
1.39475,0.0126436
1.395,0.0374395
1.39525,0.0506037
1.3955,0.0569868
1.39575,0.0621991
1.396,0.0627041
1.39625,0.0577225
1.3965,0.0387953
1.39675,0.0159197
1.397,0.000871231
1.39725,-0.0273261
1.3975,-0.0473566
1.39775,-0.0600646
1.398,-0.0767971
1.39825,-0.0819454
1.3985,-0.0762743
1.39875,-0.0624059
1.399,-0.0422256
1.39925,-0.0174553
1.3995,0.0142947
1.39975,0.0551242
1.4,0.100856
1.40025,0.141257
1.4005,0.182171
1.40075,0.214797
1.401,0.239764
1.40125,0.263583
1.4015,0.2701
1.40175,0.27892
1.402,0.266562
1.40225,0.254742
1.4025,0.235727
1.40275,0.224085
1.403,0.200572
1.40325,0.17827
1.4035,0.160579
1.40375,0.14367
1.404,0.136277
1.40425,0.135131
1.4045,0.137633
1.40475,0.149902
1.405,0.165444
1.40525,0.179232
1.4055,0.205428
1.40575,0.221077
1.406,0.238579
1.40625,0.245846
1.4065,0.258873
1.40675,0.251423
1.407,0.241409
1.40725,0.224066
1.4075,0.197821
1.40775,0.16088
1.408,0.118209
1.40825,0.080152
1.4085,0.0325141
1.40875,-0.0017897
1.409,-0.0403556
1.40925,-0.0803945
1.4095,-0.0994038
1.40975,-0.113377
1.41,-0.122516
1.41025,-0.125324
1.4105,-0.114822
1.41075,-0.0998399
1.411,-0.0867213
1.41125,-0.0622631
1.4115,-0.0457344
1.41175,-0.0257766
1.412,-0.0110294
1.41225,-0.000867848
1.4125,0.000126099
1.41275,-0.00352085
1.413,-0.0205817
1.41325,-0.0358229
1.4135,-0.056772
1.41375,-0.0744874
1.414,-0.0989342
1.41425,-0.123012
1.4145,-0.138759
1.41475,-0.146791
1.415,-0.148885
1.41525,-0.139349
1.4155,-0.123598
1.41575,-0.106098
1.416,-0.0685585
1.41625,-0.0327379
1.4165,0.00379062
1.41675,0.0460614
1.417,0.084113
1.41725,0.119199
1.4175,0.158058
1.41775,0.175426
1.418,0.201178
1.41825,0.200825
1.4185,0.207041
1.41875,0.20048
1.419,0.184831
1.41925,0.162218
1.4195,0.140172
1.41975,0.124005
1.42,0.0977866
1.42025,0.0871428
1.4205,0.0659342
1.42075,0.0646353
1.421,0.0645031
1.42125,0.0755132
1.4215,0.0786028
1.42175,0.0965731
1.422,0.122079
1.42225,0.142643
1.4225,0.1641
1.42275,0.171237
1.423,0.184564
1.42325,0.184214
1.4235,0.179185
1.42375,0.173715
1.424,0.152102
1.42425,0.117702
1.4245,0.0828975
1.42475,0.0388584
1.425,0.000648602
1.42525,-0.0462751
1.4255,-0.082696
1.42575,-0.121614
1.426,-0.153609
1.42625,-0.177279
1.4265,-0.189276
1.42675,-0.192982
1.427,-0.187439
1.42725,-0.176523
1.4275,-0.159873
1.42775,-0.139886
1.428,-0.125535
1.42825,-0.101192
1.4285,-0.0864211
1.42875,-0.0789139
1.429,-0.0716908
1.42925,-0.0645385
1.4295,-0.0725221
1.42975,-0.0904242
1.43,-0.0998898
1.43025,-0.12426
1.4305,-0.142676
1.43075,-0.16531
1.431,-0.188548
1.43125,-0.197918
1.4315,-0.21226
1.43175,-0.208702
1.432,-0.20232
1.43225,-0.180912
1.4325,-0.156052
1.43275,-0.124084
1.433,-0.0824837
1.43325,-0.0472962
1.4335,-0.00508849
1.43375,0.039898
1.434,0.0770952
1.43425,0.105058
1.4345,0.123553
1.43475,0.147052
1.435,0.145145
1.43525,0.147871
1.4355,0.138269
1.43575,0.118163
1.436,0.100713
1.43625,0.0802286
1.4365,0.0605308
1.43675,0.0349621
1.437,0.018824
1.43725,0.016216
1.4375,0.00535945
1.43775,0.00706063
1.438,0.0206422
1.43825,0.0329854
1.4385,0.0484471
1.43875,0.0756835
1.439,0.0939526
1.43925,0.111789
1.4395,0.127714
1.43975,0.129543
1.44,0.134994
1.44025,0.130779
1.4405,0.107049
1.44075,0.0907616
1.441,0.056141
1.44125,0.0130256
1.4415,-0.0271705
1.44175,-0.0699485
1.442,-0.112289
1.44225,-0.146868
1.4425,-0.17635
1.44275,-0.208464
1.443,-0.224227
1.44325,-0.240091
1.4435,-0.24057
1.44375,-0.233917
1.444,-0.215654
1.44425,-0.206267
1.4445,-0.184986
1.44475,-1.60E-01
1.445,-0.139516
1.44525,-0.12578
1.4455,-0.113994
1.44575,-0.113844
1.446,-0.112072
1.44625,-0.119234
1.4465,-0.138368
1.44675,-0.147909
1.447,-0.175839
1.44725,-0.190945
1.4475,-0.212033
1.44775,-0.229119
1.448,-0.246553
1.44825,-0.243614
1.4485,-0.248651
1.44875,-0.236251
1.449,-0.208249
1.44925,-0.177682
1.4495,-0.150291
1.44975,-0.11073
1.45,-0.0686295
1.45025,-0.0226622
1.4505,0.0174365
1.45075,0.0485028
1.451,0.0732628
1.45125,0.0969554
1.4515,0.109212
1.45175,0.117872
1.452,0.107307
1.45225,0.0971072
1.4525,0.0790586
1.45275,0.0639929
1.453,0.0371239
1.45325,0.0200583
1.4535,-0.000549347
1.45375,-0.013799
1.454,-0.0224919
1.45425,-0.0208858
1.4545,-0.0194475
1.45475,0.000101718
1.455,0.0104985
1.45525,0.0286635
1.4555,0.0504883
1.45575,0.0777237
1.456,0.0880534
1.45625,0.10035
1.4565,0.114026
1.45675,0.109582
1.457,0.0958249
1.45725,0.0807381
1.4575,0.0521785
1.45775,0.02334
1.458,-0.0151732
1.45825,-0.0617304
1.4585,-0.099805
1.45875,-0.146359
1.459,-0.179029
1.45925,-0.209528
1.4595,-0.236016
1.45975,-0.253509
1.46,-0.255164
1.46025,-0.255854
1.4605,-0.24404
1.46075,-0.229762
1.461,-0.208614
1.46125,-0.187738
1.4615,-0.17123
1.46175,-0.15478
1.462,-0.135688
1.46225,-0.130937
1.4625,-0.124499
1.46275,-0.127828
1.463,-0.141471
1.46325,-0.151813
1.4635,-0.173968
1.46375,-0.188037
1.464,-0.210231
1.46425,-0.22925
1.4645,-0.251524
1.46475,-0.256516
1.465,-0.258178
1.46525,-0.250002
1.4655,-0.238856
1.46575,-0.209674
1.466,-0.17733
1.46625,-0.146263
1.4665,-0.0973278
1.46675,-0.0548267
1.467,-0.0181508
1.46725,0.0207976
1.4675,0.0585394
1.46775,0.0819744
1.468,0.0950041
1.46825,0.105712
1.4685,0.107742
1.46875,0.108339
1.469,0.0949618
1.46925,0.0699157
1.4695,0.0492479
1.46975,0.031045
1.47,0.00788666
1.47025,-0.00761105
1.4705,-0.0108259
1.47075,-0.0214368
1.471,-0.0241158
1.47125,-0.00730818
1.4715,0.00573519
1.47175,0.0234415
1.472,0.037305
1.47225,0.066069
1.4725,0.0839771
1.47275,0.101547
1.473,0.112736
1.47325,0.11532
1.4735,0.113195
1.47375,0.100772
1.474,0.0787491
1.47425,0.0482314
1.4745,0.0112716
1.47475,-0.0274602
1.475,-0.0626049
1.47525,-0.10408
1.4755,-0.148704
1.47575,-0.183069
1.476,-0.211217
1.47625,-0.228848
1.4765,-0.244192
1.47675,-0.246077
1.477,-0.241553
1.47725,-0.229325
1.4775,-0.21516
1.47775,-0.194588
1.478,-0.169771
1.47825,-0.150177
1.4785,-0.136689
1.47875,-0.122464
1.479,-0.109986
1.47925,-0.111263
1.4795,-0.120901
1.47975,-0.130821
1.48,-0.142259
1.48025,-0.168852
1.4805,-0.180419
1.48075,-0.20743
1.481,-0.224167
1.48125,-0.233816
1.4815,-0.244248
1.48175,-0.244322
1.482,-0.234414
1.48225,-0.212541
1.4825,-0.179443
1.48275,-0.14561
1.483,-0.108246
1.48325,-0.0681222
1.4835,-0.0236122
1.48375,0.00951811
1.484,0.0472097
1.48425,0.083695
1.4845,0.108847
1.48475,0.124709
1.485,0.132883
1.48525,0.125237
1.4855,0.125062
1.48575,0.108193
1.486,0.0902047
1.48625,0.0625801
1.4865,0.0501187
1.48675,0.0302976
1.487,0.0166009
1.48725,0.00818805
1.4875,0.00391516
1.48775,0.00160424
1.488,0.0108927
1.48825,0.0348547
1.4885,0.0536931
1.48875,0.0731511
1.489,0.0971669
1.48925,0.117629
1.4895,0.130112
1.48975,0.13356
1.49,0.137317
1.49025,0.128516
1.4905,0.120091
1.49075,0.0929261
1.491,0.0653052
1.49125,0.0291016
1.4915,-0.00919676
1.49175,-0.0535939
1.492,-0.0994435
1.49225,-0.136181
1.4925,-0.165818
1.49275,-0.195621
1.493,-0.213652
1.49325,-0.222502
1.4935,-0.216756
1.49375,-0.215264
1.494,-0.199169
1.49425,-0.183095
1.4945,-0.163383
1.49475,-0.137733
1.495,-0.115521
1.49525,-0.106042
1.4955,-0.0845215
1.49575,-0.0785614
1.496,-0.0808535
1.49625,-0.0893838
1.4965,-0.106407
1.49675,-0.122752
1.497,-0.146129
1.49725,-0.165678
1.4975,-0.186595
1.49775,-0.194123
1.498,-0.208491
1.49825,-0.212109
1.4985,-0.211029
1.49875,-0.1932
1.499,-0.172958
1.49925,-0.14357
1.4995,-0.10545
1.49975,-0.0642924
1.5,-0.0247388
1.50025,0.0179954
1.5005,0.0536963
1.50075,0.0932547
1.501,0.126502
1.50125,0.140498
1.5015,0.153439
1.50175,0.163113
1.502,0.162941
1.50225,0.145459
1.5025,0.131225
1.50275,0.111329
1.503,0.092439
1.50325,0.073375
1.5035,0.0518633
1.50375,0.0443032
1.504,0.0357405
1.50425,0.0338993
1.5045,0.0430957
1.50475,0.053071
1.505,0.0731862
1.50525,0.0895663
1.5055,0.115123
1.50575,0.132964
1.506,0.14986
1.50625,0.160692
1.5065,0.176194
1.50675,0.174121
1.507,0.163005
1.50725,0.140114
1.5075,0.113255
1.50775,0.0833973
1.508,0.0494779
1.50825,0.00389472
1.5085,-0.036768
1.50875,-0.0764048
1.509,-0.116387
1.50925,-0.146087
1.5095,-0.164642
1.50975,-0.178578
1.51,-0.183674
1.51025,-0.185541
1.5105,-0.179394
1.51075,-0.158936
1.511,-0.137448
1.51125,-0.120453
1.5115,-0.100248
1.51175,-0.0753039
1.512,-0.0649685
1.51225,-0.0499619
1.5125,-0.0492339
1.51275,-0.0553278
1.513,-0.0624296
1.51325,-0.0757016
1.5135,-0.0927406
1.51375,-0.117539
1.514,-0.140868
1.51425,-0.15987
1.5145,-0.168038
1.51475,-0.174194
1.515,-0.181621
1.51525,-0.173474
1.5155,-0.160332
1.51575,-0.131319
1.516,-0.0967233
1.51625,-0.0589455
1.5165,-0.0211193
1.51675,0.0210833
1.517,0.0628044
1.51725,0.105122
1.5175,0.133307
1.51775,0.15805
1.518,0.184509
1.51825,0.189066
1.5185,0.194499
1.51875,0.182899
1.519,0.170897
1.51925,0.158992
1.5195,0.136523
1.51975,0.111565
1.52,0.0950808
1.52025,0.0825258
1.5205,0.0655317
1.52075,0.0595663
1.521,0.0640258
1.52125,0.0709157
1.5215,0.0921039
1.52175,0.107739
1.522,0.131372
1.52225,0.148757
1.5225,0.171618
1.52275,0.181608
1.523,0.200344
1.52325,0.202351
1.5235,0.200015
1.52375,0.181413
1.524,0.168632
1.52425,0.132055
1.5245,0.104628
1.52475,0.0568613
1.525,0.0209664
1.52525,-0.0243306
1.5255,-0.0598357
1.52575,-0.0918271
1.526,-0.120229
1.52625,-0.146092
1.5265,-0.16198
1.52675,-0.165752
1.527,-0.15886
1.52725,-0.15025
1.5275,-0.125798
1.52775,-0.10454
1.528,-0.0862456
1.52825,-0.0703376
1.5285,-0.0471906
1.52875,-0.0387932
1.529,-0.0280074
1.52925,-0.0208567
1.5295,-0.0331974
1.52975,-0.040804
1.53,-0.0620382
1.53025,-0.0804563
1.5305,-0.0947188
1.53075,-0.121934
1.531,-0.139626
1.53125,-0.153078
1.5315,-0.158989
1.53175,-0.15251
1.532,-0.141955
1.53225,-0.128133
1.5325,-0.0992231
1.53275,-0.0682904
1.533,-0.0254035
1.53325,0.0143562
1.5335,0.057427
1.53375,0.0970868
1.534,0.134307
1.53425,0.166892
1.5345,0.187843
1.53475,0.210819
1.535,0.216061
1.53525,0.213715
1.5355,0.204868
1.53575,0.188187
1.536,0.168274
1.53625,0.152949
1.5365,0.12561
1.53675,0.10945
1.537,0.0928199
1.53725,0.0862215
1.5375,0.0848282
1.53775,0.0856147
1.538,0.0944265
1.53825,0.107322
1.5385,0.128078
1.53875,0.150862
1.539,0.17417
1.53925,0.19079
1.5395,0.210686
1.53975,0.219964
1.54,0.213561
1.54025,0.211347
1.5405,0.197132
1.54075,0.168399
1.541,0.136271
1.54125,0.103006
1.5415,0.0666263
1.54175,0.0222335
1.542,-0.0169487
1.54225,-0.0533043
1.5425,-0.0955958
1.54275,-0.114881
1.543,-0.131078
1.54325,-0.146414
1.5435,-0.148259
1.54375,-0.138766
1.544,-0.127384
1.54425,-0.111554
1.5445,-0.0924336
1.54475,-0.0646476
1.545,-0.0423705
1.54525,-0.0271937
1.5455,-0.0194918
1.54575,-0.0129948
1.546,-0.00903675
1.54625,-0.0225829
1.5465,-0.0317971
1.54675,-0.0541285
1.547,-0.0688231
1.54725,-0.0908661
1.5475,-0.11776
1.54775,-0.126551
1.548,-0.145844
1.54825,-0.147898
1.5485,-0.145218
1.54875,-0.126956
1.549,-0.112093
1.54925,-0.0781342
1.5495,-0.0458982
1.54975,-0.00349076
1.55,0.0384698
1.55025,0.0769316
1.5505,0.124228
1.55075,0.155054
1.551,0.183902
1.55125,0.204405
1.5515,0.220732
1.55175,0.225783
1.552,0.217995
1.55225,0.207134
1.5525,0.185642
1.55275,0.174692
1.553,0.147198
1.55325,0.127169
1.5535,0.11312
1.55375,0.0984463
1.554,0.0924092
1.55425,0.0915889
1.5545,0.0950383
1.55475,0.108207
1.555,0.118986
1.55525,0.146637
1.5555,0.167587
1.55575,0.186687
1.556,0.200651
1.55625,0.21152
1.5565,0.223633
1.55675,0.21912
1.557,0.208196
1.55725,0.193737
1.5575,0.169674
1.55775,0.130949
1.558,0.0942016
1.55825,0.0558069
1.5585,0.0106488
1.55875,-0.0344299
1.559,-0.0722149
1.55925,-0.101786
1.5595,-0.125074
1.55975,-0.142783
1.56,-0.146186
1.56025,-0.149015
1.5605,-0.136311
1.56075,-0.121918
1.561,-0.0998741
1.56125,-0.0765696
1.5615,-0.0567891
1.56175,-0.038443
1.562,-0.0299065
1.56225,-0.0177324
1.5625,-0.0095668
1.56275,-0.0135378
1.563,-0.0244574
1.56325,-0.0415975
1.5635,-0.0653261
1.56375,-0.0788312
1.564,-0.106813
1.56425,-0.119269
1.5645,-0.141318
1.56475,-0.147673
1.565,-0.150769
1.56525,-0.145649
1.5655,-0.122993
1.56575,-0.0988523
1.566,-0.0702644
1.56625,-0.0358508
1.5665,0.00798496
1.56675,0.0436529
1.567,0.0903251
1.56725,0.129592
1.5675,0.159071
1.56775,0.19107
1.568,0.202454
1.56825,0.210774
1.5685,0.218897
1.56875,0.207173
1.569,0.197247
1.56925,0.178528
1.5695,0.156111
1.56975,0.134378
1.57,0.113653
1.57025,0.0957379
1.5705,0.090697
1.57075,0.0801506
1.571,0.0830857
1.57125,0.0907564
1.5715,0.101786
1.57175,0.11781
1.572,0.139161
1.57225,0.164377
1.5725,0.185659
1.57275,0.195719
1.573,0.204855
1.57325,0.215808
1.5735,0.208814
1.57375,0.192804
1.574,0.179837
1.57425,0.146608
1.5745,0.108808
1.57475,0.0710923
1.575,0.0313727
1.57525,-0.0175837
1.5755,-0.0535421
1.57575,-0.0887028
1.576,-0.117884
1.57625,-0.141498
1.5765,-0.155491
1.57675,-0.153684
1.577,-0.155724
1.57725,-0.144165
1.5775,-0.129505
1.57775,-0.104118
1.578,-0.085733
1.57825,-0.0596711
1.5785,-0.0446113
1.57875,-0.0321534
1.579,-0.0308719
1.57925,-0.027792
1.5795,-0.0307712
1.57975,-0.0427949
1.58,-0.0543013
1.58025,-0.0826896
1.5805,-0.0978775
1.58075,-0.12481
1.581,-0.138864
1.58125,-0.149918
1.5815,-0.160503
1.58175,-0.158396
1.582,-1.47E-01
1.58225,-0.135175
1.5825,-0.100311
1.58275,-0.0761112
1.583,-0.0303468
1.58325,0.0105035
1.5835,0.0523181
1.58375,0.0938546
1.584,0.123026
1.58425,0.16277
1.5845,0.179516
1.58475,0.192951
1.585,0.205936
1.58525,0.203867
1.5855,0.192665
1.58575,0.178147
1.586,0.160991
1.58625,0.13619
1.5865,0.115607
1.58675,0.0991899
1.587,0.0828153
1.58725,0.0761006
1.5875,0.0687366
1.58775,0.0704581
1.588,0.0800591
1.58825,0.0940752
1.5885,0.110719
1.58875,0.140098
1.589,0.158606
1.58925,0.173137
1.5895,0.186322
1.58975,0.196497
1.59,0.200107
1.59025,0.191578
1.5905,0.175957
1.59075,0.152086
1.591,0.122514
1.59125,0.088194
1.5915,0.0430215
1.59175,0.00389975
1.592,-0.0392638
1.59225,-0.078734
1.5925,-0.111624
1.59275,-0.139937
1.593,-0.153288
1.59325,-0.172552
1.5935,-0.165646
1.59375,-0.164125
1.594,-0.14767
1.59425,-0.133407
1.5945,-0.116024
1.59475,-0.0905725
1.595,-0.0664921
1.59525,-0.0529392
1.5955,-0.0468516
1.59575,-0.0395679
1.596,-0.044332
1.59625,-0.0469454
1.5965,-0.0570227
1.59675,-0.0765916
1.597,-0.102477
1.59725,-0.122135
1.5975,-0.139803
1.59775,-0.157914
1.598,-0.174577
1.59825,-0.176919
1.5985,-0.16845
1.59875,-0.160806
1.599,-0.134743
1.59925,-0.104333
1.5995,-0.0693539
1.59975,-0.0371842
1.6,0.0117815
1.60025,0.0475752
1.6005,0.087665
1.60075,0.122759
1.601,0.15551
1.60125,0.173338
1.6015,0.183977
1.60175,0.190797
1.602,0.183784
1.60225,0.180642
1.6025,0.163106
1.60275,0.141005
1.603,0.115131
1.60325,0.0970448
1.6035,0.082575
1.60375,0.0664182
1.604,0.0621719
1.60425,0.0526562
1.6045,0.0577107
1.60475,0.0747284
1.605,0.0896351
1.60525,0.112538
1.6055,0.133544
1.60575,0.153385
1.606,0.16911
1.60625,0.178122
1.6065,0.184552
1.60675,0.182833
1.607,0.180608
1.60725,0.156919
1.6075,0.126927
1.60775,0.0964548
1.608,0.0627338
1.60825,0.0205285
1.6085,-0.0224103
1.60875,-0.0614443
1.609,-0.108281
1.60925,-0.137127
1.6095,-0.153826
1.60975,-0.173078
1.61,-0.183613
1.61025,-0.184687
1.6105,-0.168711
1.61075,-0.153206
1.611,-0.137155
1.61125,-0.114491
1.6115,-0.0943082
1.61175,-0.0754311
1.612,-0.0590019
1.61225,-0.0543391
1.6125,-0.0462469
1.61275,-0.0498255
1.613,-0.0633327
1.61325,-0.0808262
1.6135,-0.0964573
1.61375,-0.114579
1.614,-0.140023
1.61425,-0.158068
1.6145,-0.170469
1.61475,-0.181149
1.615,-0.187404
1.61525,-0.176386
1.6155,-0.162339
1.61575,-0.135041
1.616,-0.109948
1.61625,-0.0664886
1.6165,-0.0316072
1.61675,0.0100159
1.617,0.0573037
1.61725,0.0964836
1.6175,0.126392
1.61775,0.151823
1.618,0.165361
1.61825,0.175437
1.6185,0.182323
1.61875,0.175138
1.619,0.159045
1.61925,0.145942
1.6195,0.119633
1.61975,0.100791
1.62,0.0844455
1.62025,0.0645027
1.6205,0.0487965
1.62075,0.0481735
1.621,0.0516409
1.62125,0.0518357
1.6215,0.0697142
1.62175,0.0873336
1.622,0.108875
1.62225,0.13132
1.6225,0.150169
1.62275,0.161548
1.623,0.171835
1.62325,0.180873
1.6235,0.170854
1.62375,0.15992
1.624,0.137218
1.62425,0.110309
1.6245,0.0748885
1.62475,0.0333162
1.625,-0.00336887
1.62525,-0.0512591
1.6255,-0.0858954
1.62575,-0.118403
1.626,-0.149394
1.62625,-0.170865
1.6265,-0.184078
1.62675,-0.188972
1.627,-0.181928
1.62725,-0.173939
1.6275,-0.159929
1.62775,-0.13531
1.628,-0.116008
1.62825,-0.0958185
1.6285,-0.0799696
1.62875,-0.0647977
1.629,-0.0620832
1.62925,-0.0531983
1.6295,-0.0643287
1.62975,-0.0770551
1.63,-0.0889161
1.63025,-0.110738
1.6305,-0.133318
1.63075,-0.1485
1.631,-0.169771
1.63125,-0.179865
1.6315,-0.186897
1.63175,-0.189194
1.632,-0.180206
1.63225,-0.156148
1.6325,-0.134116
1.63275,-0.0967794
1.633,-0.0668147
1.63325,-0.0238248
1.6335,0.0240696
1.63375,0.0617352
1.634,0.0981424
1.63425,0.132068
1.6345,0.15849
1.63475,0.173312
1.635,0.177463
1.63525,0.176472
1.6355,0.161803
1.63575,0.152149
1.636,0.132646
1.63625,0.10683
1.6365,0.0903739
1.63675,0.0758631
1.637,0.0534957
1.63725,0.050548
1.6375,0.0482612
1.63775,0.0511692
1.638,0.0604648
1.63825,0.071409
1.6385,0.0941653
1.63875,0.109089
1.639,0.128834
1.63925,0.153031
1.6395,0.167436
1.63975,0.171013
1.64,0.172
1.64025,0.170258
1.6405,0.158663
1.64075,0.134085
1.641,0.0949879
1.64125,0.06165
1.6415,0.0247718
1.64175,-0.0228786
1.642,-0.0666112
1.64225,-0.101046
1.6425,-0.130943
1.64275,-0.159847
1.643,-0.1743
1.64325,-0.187661
1.6435,-0.18816
1.64375,-0.187758
1.644,-0.16541
1.64425,-0.152009
1.6445,-0.127352
1.64475,-0.114565
1.645,-0.0919441
1.64525,-0.0775514
1.6455,-0.0578367
1.64575,-0.0598141
1.646,-0.053651
1.64625,-0.0630454
1.6465,-0.0808352
1.64675,-0.0973778
1.647,-0.118642
1.64725,-0.141559
1.6475,-0.157258
1.64775,-0.177924
1.648,-0.184159
1.64825,-0.18472
1.6485,-0.182151
1.64875,-0.169699
1.649,-0.156033
1.64925,-0.126209
1.6495,-0.0898805
1.64975,-0.0437263
1.65,-0.0095937
1.65025,0.0407123
1.6505,0.078556
1.65075,0.109757
1.651,0.136485
1.65125,0.165738
1.6515,0.17265
1.65175,0.177383
1.652,0.178804
1.65225,0.158642
1.6525,0.143256
1.65275,0.131202
1.653,0.104237
1.65325,0.0812302
1.6535,0.0714398
1.65375,0.0510059
1.654,0.045725
1.65425,0.0404577
1.6545,0.0473881
1.65475,0.0597806
1.655,0.0769262
1.65525,0.0980104
1.6555,0.117066
1.65575,0.137571
1.656,0.158236
1.65625,0.171526
1.6565,0.177781
1.65675,0.182383
1.657,0.1661
1.65725,0.151801
1.6575,0.127158
1.65775,0.0901224
1.658,0.0561404
1.65825,0.0133296
1.6585,-0.0357462
1.65875,-0.0693507
1.659,-0.109248
1.65925,-0.140356
1.6595,-0.162212
1.65975,-0.182172
1.66,-1.86E-01
1.66025,-0.189752
1.6605,-0.177252
1.66075,-0.165948
1.661,-0.138764
1.66125,-0.124411
1.6615,-0.101493
1.66175,-0.0859833
1.662,-0.0688489
1.66225,-0.0577482
1.6625,-0.0537899
1.66275,-0.05957
1.663,-0.0681951
1.66325,-0.0820318
1.6635,-0.0988153
1.66375,-0.118891
1.664,-0.138931
1.66425,-0.159495
1.6645,-0.176435
1.66475,-0.181321
1.665,-0.184726
1.66525,-0.173824
1.6655,-0.162972
1.66575,-0.136263
1.666,-0.106223
1.66625,-0.0745422
1.6665,-0.0282862
1.66675,0.0107299
1.667,0.0551204
1.66725,0.0905743
1.6675,0.126602
1.66775,0.15447
1.668,0.171681
1.66825,0.176156
1.6685,0.182256
1.66875,0.174678
1.669,0.161182
1.66925,0.142337
1.6695,0.128951
1.66975,0.0995584
1.67,0.0851755
1.67025,0.069307
1.6705,0.054227
1.67075,0.0521232
1.671,0.0547837
1.67125,0.0551593
1.6715,0.0759884
1.67175,0.0862802
1.672,0.106117
1.67225,0.128008
1.6725,0.15487
1.67275,0.164413
1.673,0.177344
1.67325,0.182666
1.6735,0.175736
1.67375,0.163293
1.674,0.147656
1.67425,0.11272
1.6745,0.0849539
1.67475,0.0417202
1.675,0.00425426
1.67525,-0.0432975
1.6755,-0.0837669
1.67575,-0.112984
1.676,-0.149839
1.67625,-0.170193
1.6765,-0.174117
1.67675,-0.187055
1.677,-0.180855
1.67725,-0.172148
1.6775,-0.156025
1.67775,-0.131022
1.678,-0.108257
1.67825,-0.0904302
1.6785,-0.0661603
1.67875,-0.0575556
1.679,-0.0494587
1.67925,-0.0527212
1.6795,-0.0510702
1.67975,-0.0643412
1.68,-0.082064
1.68025,-0.0986576
1.6805,-0.125271
1.68075,-0.145858
1.681,-0.163893
1.68125,-0.177397
1.6815,-0.179996
1.68175,-0.181278
1.682,-0.168709
1.68225,-0.155853
1.6825,-0.122142
1.68275,-0.0952679
1.683,-0.051354
1.68325,-0.00917224
1.6835,0.0350798
1.68375,0.0731918
1.684,0.10843
1.68425,0.141191
1.6845,0.167617
1.68475,0.179317
1.685,0.182034
1.68525,0.184787
1.6855,0.18042
1.68575,0.165751
1.686,0.14304
1.68625,0.121881
1.6865,0.102837
1.68675,0.0836748
1.687,0.0655144
1.68725,0.0584258
1.6875,0.0535924
1.68775,0.057919
1.688,0.0700593
1.68825,0.0855149
1.6885,0.105224
1.68875,0.124179
1.689,0.145897
1.68925,0.164844
1.6895,0.18029
1.68975,0.187708
1.69,0.192303
1.69025,0.177876
1.6905,0.165063
1.69075,0.140545
1.691,0.108713
1.69125,0.0740186
1.6915,0.0297733
1.69175,-0.00561681
1.692,-0.0530567
1.69225,-0.0874769
1.6925,-0.117558
1.69275,-0.152767
1.693,-0.168779
1.69325,-0.174725
1.6935,-0.174911
1.69375,-0.169144
1.694,-0.155824
1.69425,-0.136201
1.6945,-0.123719
1.69475,-0.101774
1.695,-0.0741432
1.69525,-0.060475
1.6955,-0.0471348
1.69575,-0.0431339
1.696,-0.0423438
1.69625,-0.0530225
1.6965,-0.0705495
1.69675,-0.0852953
1.697,-0.101992
1.69725,-0.129465
1.6975,-0.149597
1.69775,-0.159271
1.698,-0.171803
1.69825,-0.178262
1.6985,-0.172767
1.69875,-0.157044
1.699,-0.139524
1.69925,-0.115515
1.6995,-0.079817
1.69975,-0.0377964
1.7,0.00984708
1.70025,0.0507052
1.7005,0.0833999
1.70075,0.126412
1.701,0.150586
1.70125,0.171384
1.7015,0.186955
1.70175,0.187109
1.702,0.182443
1.70225,0.172722
1.7025,0.155344
1.70275,0.139945
1.703,0.120021
1.70325,0.100593
1.7035,0.0765664
1.70375,0.0621746
1.704,0.0615557
1.70425,0.0547962
1.7045,0.0608126
1.70475,0.0699022
1.705,0.0930765
1.70525,0.109439
1.7055,0.130609
1.70575,0.152056
1.706,0.1705
1.70625,0.179422
1.7065,0.187078
1.70675,0.191038
1.707,0.180285
1.70725,0.163453
1.7075,0.137364
1.70775,0.103019
1.708,0.0587438
1.70825,0.0254808
1.7085,-0.0256229
1.70875,-0.0577528
1.709,-0.100727
1.70925,-0.129126
1.7095,-0.15514
1.70975,-0.168429
1.71,-0.171269
1.71025,-0.17388
1.7105,-0.162895
1.71075,-0.145558
1.711,-0.12776
1.71125,-0.106626
1.7115,-0.0844197
1.71175,-0.0686087
1.712,-0.0561955
1.71225,-0.0461678
1.7125,-0.0440735
1.71275,-0.0475224
1.713,-0.0520095
1.71325,-0.0713839
1.7135,-0.0860846
1.71375,-0.112649
1.714,-0.130585
1.71425,-0.146847
1.7145,-0.169192
1.71475,-0.169786
1.715,-0.172105
1.71525,-0.167324
1.7155,-0.155791
1.71575,-0.125458
1.716,-0.0981105
1.71625,-0.0598096
1.7165,-0.0245411
1.71675,0.0212933
1.717,0.0644434
1.71725,0.100347
1.7175,0.130888
1.71775,0.163126
1.718,0.17884
1.71825,0.192385
1.7185,0.195309
1.71875,0.182395
1.719,0.174389
1.71925,0.158414
1.7195,0.134213
1.71975,0.112267
1.72,0.0970682
1.72025,0.0738478
1.7205,0.0680687
1.72075,0.0592882
1.721,0.0595222
1.72125,0.0630833
1.7215,0.0803802
1.72175,0.103307
1.722,0.118201
1.72225,0.141311
1.7225,0.157403
1.72275,0.173829
1.723,0.192915
1.72325,0.195566
1.7235,0.186741
1.72375,0.170739
1.724,0.15003
1.72425,0.128113
1.7245,0.0912455
1.72475,0.0519259
1.725,0.011646
1.72525,-0.0300081
1.7255,-0.0686178
1.72575,-0.107773
1.726,-0.139443
1.72625,-0.161835
1.7265,-0.170047
1.72675,-0.176258
1.727,-0.167541
1.72725,-0.162226
1.7275,-0.143954
1.72775,-0.122234
1.728,-0.100506
1.72825,-0.0829941
1.7285,-0.0680311
1.72875,-0.052484
1.729,-0.0405787
1.72925,-0.0445999
1.7295,-0.0475173
1.72975,-0.0583484
1.73,-0.0724575
1.73025,-0.091932
1.7305,-0.118996
1.73075,-0.141458
1.731,-0.154872
1.73125,-0.170454
1.7315,-0.172297
1.73175,-0.17286
1.732,-0.167025
1.73225,-0.140851
1.7325,-0.12074
1.73275,-0.0825608
1.733,-0.0468233
1.73325,-0.00416012
1.7335,0.0382573
1.73375,0.0782784
1.734,0.114858
1.73425,0.143951
1.7345,0.17254
1.73475,0.183225
1.735,0.191606
1.73525,0.188405
1.7355,0.178368
1.73575,0.170787
1.736,0.145168
1.73625,0.126787
1.7365,0.101579
1.73675,0.0876795
1.737,0.0690167
1.73725,0.0585573
1.7375,0.0586153
1.73775,0.057217
1.738,0.073914
1.73825,0.0860166
1.7385,0.102455
1.73875,0.121467
1.739,0.142289
1.73925,0.167014
1.7395,0.176735
1.73975,0.188176
1.74,0.190316
1.74025,0.184925
1.7405,0.172455
1.74075,0.146502
1.741,0.108583
1.74125,0.0714989
1.7415,0.0331461
1.74175,-0.00594203
1.742,-0.0461793
1.74225,-0.0907313
1.7425,-0.118973
1.74275,-0.145897
1.743,-0.163751
1.74325,-0.175709
1.7435,-0.177477
1.74375,-0.173453
1.744,-0.151391
1.74425,-0.139766
1.7445,-0.120147
1.74475,-0.101156
1.745,-0.0745829
1.74525,-0.0614438
1.7455,-0.0501383
1.74575,-0.0466121
1.746,-0.0488459
1.74625,-0.0529023
1.7465,-0.0632347
1.74675,-0.0798912
1.747,-0.104798
1.74725,-0.127475
1.7475,-0.148103
1.74775,-0.165189
1.748,-0.168343
1.74825,-0.175213
1.7485,-0.172868
1.74875,-0.155597
1.749,-0.135419
1.74925,-0.109903
1.7495,-0.0767244
1.74975,-0.0338974
1.75,0.0113495
1.75025,0.0484135
1.7505,0.0872576
1.75075,0.128589
1.751,0.153685
1.75125,0.174243
1.7515,0.184319
1.75175,0.19249
1.752,0.185973
1.75225,0.177605
1.7525,0.161499
1.75275,0.143869
1.753,0.113104
1.75325,0.0999119
1.7535,0.0744926
1.75375,0.0640397
1.754,0.0554521
1.75425,0.0553546
1.7545,0.0585863
1.75475,0.0761295
1.755,0.0918573
1.75525,0.109842
1.7555,0.127348
1.75575,0.152403
1.756,0.173405
1.75625,0.182455
1.7565,0.194025
1.75675,0.185835
1.757,0.176616
1.75725,0.155199
1.7575,0.133133
1.75775,0.0985703
1.758,0.0615993
1.75825,0.0174038
1.7585,-0.0219011
1.75875,-0.064749
1.759,-0.0952366
1.75925,-0.127447
1.7595,-0.155359
1.75975,-0.167748
1.76,-0.175331
1.76025,-0.174567
1.7605,-0.164141
1.76075,-0.154566
1.761,-0.13305
1.76125,-0.110204
1.7615,-0.0957029
1.76175,-0.0743098
1.762,-0.0608511
1.76225,-0.0497189
1.7625,-0.0423667
1.76275,-0.0474668
1.763,-0.0615573
1.76325,-0.0704539
1.7635,-0.0883488
1.76375,-0.116459
1.764,-0.13008
1.76425,-0.157029
1.7645,-0.170153
1.76475,-0.173259
1.765,-0.175668
1.76525,-0.168835
1.7655,-0.154767
1.76575,-0.13593
1.766,-0.103062
1.76625,-0.0669728
1.7665,-0.0196128
1.76675,0.0164683
1.767,0.0634624
1.76725,0.101338
1.7675,0.128817
1.76775,0.15709
1.768,0.173029
1.76825,0.186769
1.7685,0.188134
1.76875,0.185539
1.769,0.17121
1.76925,0.151008
1.7695,0.129811
1.76975,0.109522
1.77,0.087379
1.77025,0.0685621
1.7705,0.0643477
1.77075,0.05951
1.771,0.0533271
1.77125,0.0682105
1.7715,0.0779531
1.77175,0.0929279
1.772,0.117502
1.77225,0.140978
1.7725,0.15732
1.77275,0.175784
1.773,0.181282
1.77325,0.193743
1.7735,0.184008
1.77375,0.173778
1.774,0.147599
1.77425,0.117129
1.7745,0.0918609
1.77475,0.0469413
1.775,0.00876127
1.77525,-0.0403308
1.7755,-0.08075
1.77575,-0.111674
1.776,-0.144013
1.77625,-0.160643
1.7765,-0.174862
1.77675,-0.180087
1.777,-0.172741
1.77725,-0.16315
1.7775,-0.148118
1.77775,-0.125694
1.778,-0.103862
1.77825,-0.0887511
1.7785,-0.064895
1.77875,-0.0571665
1.779,-0.0443337
1.77925,-0.0488647
1.7795,-0.0513309
1.77975,-0.065509
1.78,-0.0741375
1.78025,-0.098482
1.7805,-0.121735
1.78075,-0.137058
1.781,-0.155872
1.78125,-0.175391
1.7815,-0.177757
1.78175,-0.172587
1.782,-0.169372
1.78225,-0.143979
1.7825,-0.119997
1.78275,-0.0918654
1.783,-0.0497177
1.78325,-0.00751596
1.7835,0.031414
1.78375,0.0779494
1.784,0.107105
1.78425,0.140859
1.7845,0.168715
1.78475,0.183645
1.785,0.187521
1.78525,0.187825
1.7855,0.17644
1.78575,0.163224
1.786,0.148398
1.78625,0.125465
1.7865,0.0990484
1.78675,0.0827613
1.787,0.0682308
1.78725,0.0541901
1.7875,0.0579673
1.78775,0.0612932
1.788,0.066221
1.78825,0.0783282
1.7885,0.0994803
1.78875,0.119829
1.789,0.144469
1.78925,0.164005
1.7895,0.172823
1.78975,0.182707
1.79,0.186222
1.79025,0.17998
1.7905,0.164327
1.79075,0.144582
1.791,0.112053
1.79125,0.0733684
1.7915,0.0336742
1.79175,-0.00574304
1.792,-0.0505744
1.79225,-0.0861064
1.7925,-0.125603
1.79275,-0.150006
1.793,-0.165502
1.79325,-0.178363
1.7935,-0.180174
1.79375,-0.177096
1.794,-0.156439
1.79425,-0.139549
1.7945,-0.120593
1.79475,-0.10233
1.795,-0.0777066
1.79525,-0.0582338
1.7955,-0.047388
1.79575,-0.0415372
1.796,-0.0465005
1.79625,-0.0534435
1.7965,-0.0692444
1.79675,-0.0857355
1.797,-0.107175
1.79725,-0.126642
1.7975,-0.152697
1.79775,-0.167398
1.798,-0.17776
1.79825,-0.17589
1.7985,-0.177853
1.79875,-0.164348
1.799,-0.137507
1.79925,-0.109052
1.7995,-0.0806259
1.79975,-0.0398046
1.8,0.00487572
1.80025,0.0414089
1.8005,0.085503
1.80075,0.124191
1.801,0.152613
1.80125,0.174022
1.8015,0.186061
1.80175,0.189489
1.802,0.183915
1.80225,0.176415
1.8025,0.160312
1.80275,0.13991
1.803,0.115842
1.80325,0.0983204
1.8035,0.0766523
1.80375,0.0649782
1.804,0.0551578
1.80425,0.0540824
1.8045,0.0608672
1.80475,0.0718922
1.805,0.0832565
1.80525,0.1114
1.8055,0.132921
1.80575,0.152696
1.806,0.1657
1.80625,0.179173
1.8065,0.191527
1.80675,0.184023
1.807,0.180696
1.80725,0.155513
1.8075,0.130976
1.80775,0.0940038
1.808,0.0626801
1.80825,0.0225878
1.8085,-0.0223413
1.80875,-0.0668527
1.809,-0.0982973
1.80925,-0.136483
1.8095,-0.155765
1.80975,-0.174967
1.81,-0.180196
1.81025,-0.173687
1.8105,-0.167184
1.81075,-0.157965
1.811,-0.139133
1.81125,-0.110855
1.8115,-0.0970359
1.81175,-0.0726524
1.812,-0.055051
1.81225,-0.0498234
1.8125,-0.0481583
1.81275,-0.0501976
1.813,-0.0610268
1.81325,-0.0723787
1.8135,-0.088709
1.81375,-0.108872
1.814,-0.138005
1.81425,-0.1493
1.8145,-0.167596
1.81475,-0.182231
1.815,-0.182408
1.81525,-0.176438
1.8155,-0.155563
1.81575,-0.136417
1.816,-0.10583
1.81625,-0.0693457
1.8165,-0.0280816
1.81675,0.0170022
1.817,0.0633686
1.81725,0.101089
1.8175,0.134089
1.81775,0.158958
1.818,0.179294
1.81825,0.186316
1.8185,0.18551
1.81875,0.183334
1.819,0.167905
1.81925,0.14632
1.8195,0.134175
1.81975,0.108724
1.82,0.0879811
1.82025,0.070846
1.8205,0.0582997
1.82075,0.0585227
1.821,0.0539439
1.82125,0.0652375
1.8215,0.0798681
1.82175,0.0995339
1.822,0.11113
1.82225,0.131811
1.8225,0.157128
1.82275,0.173661
1.823,0.186682
1.82325,0.184114
1.8235,0.185846
1.82375,0.170711
1.824,0.154726
1.82425,0.118882
1.8245,0.0823163
1.82475,0.049967
1.825,0.00922627
1.82525,-0.0412141
1.8255,-0.0820586
1.82575,-0.112313
1.826,-0.145731
1.82625,-0.158885
1.8265,-0.178795
1.82675,-0.17647
1.827,-0.175336
1.82725,-0.159353
1.8275,-0.144927
1.82775,-0.127057
1.828,-0.107944
1.82825,-0.0829806
1.8285,-0.0680396
1.82875,-0.0511317
1.829,-0.0420636
1.82925,-0.0431122
1.8295,-0.0529477
1.82975,-0.0618725
1.83,-0.0825045
1.83025,-0.0971348
1.8305,-0.12305
1.83075,-0.139362
1.831,-0.159475
1.83125,-0.167594
1.8315,-0.174473
1.83175,-0.175481
1.832,-0.170566
1.83225,-0.150305
1.8325,-0.123919
1.83275,-0.0907453
1.833,-0.0487815
1.83325,-0.00651555
1.8335,0.0278047
1.83375,0.0739496
1.834,0.109048
1.83425,0.140832
1.8345,0.167436
1.83475,0.183999
1.835,0.184236
1.83525,0.186431
1.8355,0.178211
1.83575,0.160509
1.836,0.142856
1.83625,0.12347
1.8365,0.0999816
1.83675,0.085183
1.837,0.0645823
1.83725,0.06032
1.8375,0.0588559
1.83775,0.0548191
1.838,0.0650007
1.83825,0.0821371
1.8385,0.104309
1.83875,0.122126
1.839,0.143452
1.83925,0.16462
1.8395,0.175532
1.83975,0.186842
1.84,0.188963
1.84025,0.184764
1.8405,0.170021
1.84075,0.13783
1.841,0.113758
1.84125,0.0718109
1.8415,0.0331675
1.84175,-0.00594429
1.842,-0.0544554
1.84225,-0.0873883
1.8425,-0.117857
1.84275,-0.151637
1.843,-0.169491
1.84325,-0.17905
1.8435,-0.175182
1.84375,-0.169165
1.844,-0.158124
1.84425,-0.144384
1.8445,-0.122278
1.84475,-0.101214
1.845,-0.0799021
1.84525,-0.0623279
1.8455,-0.0470666
1.84575,-0.0419587
1.846,-0.048969
1.84625,-0.0506575
1.8465,-0.0704091
1.84675,-0.0815958
1.847,-0.109885
1.84725,-0.125523
1.8475,-0.14676
1.84775,-0.167568
1.848,-0.17196
1.84825,-0.178621
1.8485,-0.172795
1.84875,-0.157823
1.849,-0.141052
1.84925,-0.107704
1.8495,-0.0795272
1.84975,-0.039622
1.85,0.00601799
1.85025,0.0517477
1.8505,0.0851038
1.85075,0.121459
1.851,0.155311
1.85125,0.16847
1.8515,0.189184
1.85175,0.186385
1.852,0.180684
1.85225,0.175777
1.8525,0.153104
1.85275,0.140417
1.853,0.115016
1.85325,0.0913954
1.8535,0.0813407
1.85375,0.0687788
1.854,0.0596496
1.85425,0.0585387
1.8545,0.064607
1.85475,0.075811
1.855,0.0884441
1.85525,0.113534
1.8555,0.127469
1.85575,0.150695
1.856,0.166765
1.85625,0.18405
1.8565,0.192193
1.85675,0.184624
1.857,0.180226
1.85725,0.154489
1.8575,0.136733
1.85775,0.103309
1.858,0.0630361
1.85825,0.0232437
1.8585,-0.0239346
1.85875,-0.0667777
1.859,-0.102812
1.85925,-0.135944
1.8595,-0.151315
1.85975,-0.16993
1.86,-0.176395
1.86025,-0.173207
1.8605,-0.164689
1.86075,-0.155741
1.861,-0.137734
1.86125,-0.113096
1.8615,-0.0958827
1.86175,-0.0721069
1.862,-0.0611573
1.86225,-0.0457026
1.8625,-0.0403399
1.86275,-0.0522672
1.863,-0.0550798
1.86325,-0.0759888
1.8635,-0.0950906
1.86375,-0.111391
1.864,-0.136102
1.86425,-0.151504
1.8645,-0.163427
1.86475,-0.178037
1.865,-0.175865
1.86525,-0.168241
1.8655,-0.155198
1.86575,-0.131596
1.866,-0.0989561
1.86625,-0.0662433
1.8665,-0.0216545
1.86675,0.0206281
1.867,0.0656301
1.86725,0.095041
1.8675,0.127648
1.86775,0.158576
1.868,0.172496
1.86825,0.190077
1.8685,0.184124
1.86875,0.184523
1.869,0.164611
1.86925,0.15377
1.8695,0.13499
1.86975,0.110922
1.87,0.0917575
1.87025,0.0725717
1.8705,0.0564909
1.87075,0.0548556
1.871,0.0569419
1.87125,0.0641132
1.8715,0.0774386
1.87175,0.0916171
1.872,0.116662
1.87225,0.134715
1.8725,0.156714
1.87275,0.170814
1.873,0.189825
1.87325,0.185787
1.8735,0.181576
1.87375,0.174336
1.874,0.149635
1.87425,0.11803
1.8745,0.0859402
1.87475,0.0456572
1.875,0.0053141
1.87525,-0.0384833
1.8755,-0.0792275
1.87575,-0.108183
1.876,-0.139372
1.87625,-0.157477
1.8765,-0.171007
1.87675,-0.178616
1.877,-0.176259
1.87725,-0.163618
1.8775,-0.149092
1.87775,-0.125243
1.878,-0.106551
1.87825,-0.0866133
1.8785,-0.0645078
1.87875,-0.0569868
1.879,-0.0501204
1.87925,-0.0489327
1.8795,-0.0474794
1.87975,-0.0606042
1.88,-0.077409
1.88025,-0.0940028
1.8805,-0.12326
1.88075,-0.137069
1.881,-0.155672
1.88125,-0.170265
1.8815,-0.182755
1.88175,-0.173903
1.882,-0.1658
1.88225,-0.1534
1.8825,-0.118408
1.88275,-0.0901921
1.883,-0.0470454
1.88325,-0.0113285
1.8835,0.0337358
1.88375,0.0730536
1.884,0.110848
1.88425,0.141112
1.8845,0.165965
1.88475,0.182644
1.885,0.188824
1.88525,0.186123
1.8855,0.175842
1.88575,0.159094
1.886,0.144025
1.88625,0.124529
1.8865,0.102735
1.88675,0.0837917
1.887,0.0720667
1.88725,0.0600615
1.8875,0.0572108
1.88775,0.0584735
1.888,0.0694654
1.88825,0.0847732
1.8885,0.102446
1.88875,0.121744
1.889,0.149093
1.88925,0.166884
1.8895,0.177837
1.88975,0.188531
1.89,0.186289
1.89025,0.180842
1.8905,0.162364
1.89075,0.140136
1.891,0.106852
1.89125,0.0752607
1.8915,0.0305284
1.89175,-0.007026
1.892,-0.0493067
1.89225,-0.0839247
1.8925,-0.11888
1.89275,-0.149284
1.893,-0.168005
1.89325,-0.172485
1.8935,-0.176889
1.89375,-0.174635
1.894,-0.162804
1.89425,-0.140166
1.8945,-0.115686
1.89475,-0.100994
1.895,-0.0770478
1.89525,-0.0576783
1.8955,-0.0517941
1.89575,-0.0412986
1.896,-0.0451866
1.89625,-0.0544682
1.8965,-0.0692635
1.89675,-0.0839853
1.897,-0.105253
1.89725,-0.128444
1.8975,-0.143022
1.89775,-0.160197
1.898,-0.173205
1.89825,-0.174567
1.8985,-0.177434
1.89875,-0.159429
1.899,-0.142981
1.89925,-0.112404
1.8995,-0.0738657
1.89975,-0.0362877
1.9,0.0017685
1.90025,0.049649
1.9005,0.0899394
1.90075,0.117137
1.901,0.15524
1.90125,0.176374
1.9015,0.181691
1.90175,0.187186
1.902,0.181205
1.90225,0.177278
1.9025,0.153044
1.90275,0.13917
1.903,0.11478
1.90325,0.0928367
1.9035,0.0790747
1.90375,0.0673757
1.904,0.0582556
1.90425,0.0584469
1.9045,0.0588066
1.90475,0.0719896
1.905,0.0933181
1.90525,0.107458
1.9055,0.129852
1.90575,0.146423
1.906,0.169426
1.90625,0.177917
1.9065,0.184101
1.90675,0.185424
1.907,0.177053
1.90725,0.15995
1.9075,0.133838
1.90775,0.103078
1.908,0.0642448
1.90825,0.0232382
1.9085,-0.023615
1.90875,-0.0675708
1.909,-0.0979247
1.90925,-0.133689
1.9095,-0.151671
1.90975,-0.167121
1.91,-0.175978
1.91025,-0.180872
1.9105,-0.170534
1.91075,-0.148512
1.911,-0.138699
1.91125,-0.112115
1.9115,-0.0965897
1.91175,-0.0756219
1.912,-0.0564118
1.91225,-0.0470667
1.9125,-0.0435976
1.91275,-0.0501292
1.913,-0.0546217
1.91325,-0.0741598
1.9135,-0.0903376
1.91375,-0.114365
1.914,-0.13924
1.91425,-0.149156
1.9145,-0.1662
1.91475,-0.178556
1.915,-0.182959
1.91525,-0.173483
1.9155,-0.156949
1.91575,-0.13664
1.916,-0.0967757
1.91625,-0.0637516
1.9165,-0.0202947
1.91675,0.01725
1.917,0.0605046
1.91725,0.0959123
1.9175,0.133628
1.91775,0.158397
1.918,0.177077
1.91825,0.189027
1.9185,0.186155
1.91875,0.17844
1.919,0.168264
1.91925,0.145769
1.9195,0.134427
1.91975,0.109073
1.92,0.0891131
1.92025,0.0711482
1.9205,0.0646492
1.92075,0.0528082
1.921,0.0518709
1.92125,0.0594102
1.9215,0.0800079
1.92175,0.0926654
1.922,0.116334
1.92225,0.132832
1.9225,0.158221
1.92275,0.174423
1.923,0.184642
1.92325,0.192928
1.9235,0.182303
1.92375,0.169679
1.924,0.154867
1.92425,0.118602
1.9245,0.0900412
1.92475,0.0440471
1.925,0.00942151
1.92525,-0.0338401
1.9255,-0.0747428
1.92575,-0.114627
1.926,-0.14529
1.92625,-0.161183
1.9265,-0.175544
1.92675,-0.183689
1.927,-0.179691
1.92725,-0.162252
1.9275,-0.149304
1.92775,-0.129844
1.928,-0.107185
1.92825,-0.0833473
1.9285,-0.0703538
1.92875,-0.0531182
1.929,-0.047416
1.92925,-0.0480237
1.9295,-0.0527191
1.92975,-0.0613802
1.93,-0.0746821
1.93025,-0.0954666
1.9305,-0.116387
1.93075,-0.140668
1.931,-0.157839
1.93125,-0.174228
1.9315,-0.181264
1.93175,-0.179613
1.932,-0.170379
1.93225,-0.151491
1.9325,-0.125134
1.93275,-0.0854279
1.933,-0.0488609
1.93325,-0.00576599
1.9335,0.0365953
1.93375,0.0772461
1.934,0.112693
1.93425,0.143218
1.9345,0.1662
1.93475,0.18243
1.935,0.190654
1.93525,0.182
1.9355,0.174002
1.93575,0.161337
1.936,0.1407
1.93625,0.12317
1.9365,0.0965428
1.93675,0.081603
1.937,0.069163
1.93725,0.0626471
1.9375,0.0576017
1.93775,0.0621744
1.938,0.0632165
1.93825,0.0779451
1.9385,0.0971394
1.93875,0.125151
1.939,0.148006
1.93925,0.158473
1.9395,0.180964
1.93975,0.182064
1.94,0.188708
1.94025,0.184513
1.9405,0.168538
1.94075,0.145715
1.941,0.114802
1.94125,0.075236
1.9415,0.0336519
1.94175,-0.0138154
1.942,-0.0529092
1.94225,-0.0855253
1.9425,-0.127089
1.94275,-0.146189
1.943,-0.165188
1.94325,-0.180446
1.9435,-0.17588
1.94375,-0.176864
1.944,-0.158961
1.94425,-0.140011
1.9445,-0.116916
1.94475,-0.101517
1.945,-0.0754247
1.94525,-0.0625893
1.9455,-0.0534587
1.94575,-0.0482936
1.946,-0.0513566
1.94625,-0.0504789
1.9465,-0.0649009
1.94675,-0.0876481
1.947,-0.104851
1.94725,-0.131145
1.9475,-0.150845
1.94775,-0.160129
1.948,-0.177191
1.94825,-0.179174
1.9485,-0.174514
1.94875,-0.160233
1.949,-0.143401
1.94925,-0.113273
1.9495,-0.0780874
1.94975,-0.0360008
1.95,0.00447829
1.95025,0.0494728
1.9505,0.0891482
1.95075,0.117843
1.951,0.154131
1.95125,0.173926
1.9515,0.187732
1.95175,0.188492
1.952,0.187751
1.95225,0.169991
1.9525,0.156406
1.95275,0.142377
1.953,0.112762
1.95325,0.0934756
1.9535,0.0734804
1.95375,0.0674738
1.954,0.0546103
1.95425,0.0581842
1.9545,0.0625087
1.95475,0.0680154
1.955,0.0905827
1.95525,0.110838
1.9555,0.132122
1.95575,0.151424
1.956,0.169268
1.95625,0.183874
1.9565,0.184689
1.95675,0.187771
1.957,0.179151
1.95725,0.154997
1.9575,0.128425
1.95775,0.0983355
1.958,0.061246
1.95825,0.0176226
1.9585,-0.0250425
1.95875,-0.0613921
1.959,-0.0978007
1.95925,-0.133572
1.9595,-0.155951
1.95975,-0.167211
1.96,-0.17606
1.96025,-0.172398
1.9605,-0.169528
1.96075,-0.154637
1.961,-0.137438
1.96125,-0.108454
1.9615,-0.0883625
1.96175,-0.073544
1.962,-0.0546086
1.96225,-0.042718
1.9625,-0.0466031
1.96275,-0.0457093
1.963,-0.051802
1.96325,-0.0734103
1.9635,-0.0898341
1.96375,-0.110243
1.964,-0.131735
1.96425,-0.156275
1.9645,-0.165421
1.96475,-0.172752
1.965,-0.179277
1.96525,-0.173973
1.9655,-0.149926
1.96575,-0.128377
1.966,-0.103331
1.96625,-0.059635
1.9665,-0.0166823
1.96675,0.02101
1.967,0.0585692
1.96725,0.1027
1.9675,0.138337
1.96775,0.159916
1.968,0.177394
1.96825,0.18627
1.9685,0.19086
1.96875,0.181206
1.969,0.173501
1.96925,0.155598
1.9695,0.136452
1.96975,0.115094
1.97,0.0922797
1.97025,0.0748727
1.9705,0.0679781
1.97075,0.0602749
1.971,0.0611369
1.97125,0.0725067
1.9715,0.0790244
1.97175,0.100375
1.972,0.123333
1.97225,0.139884
1.9725,0.165382
1.97275,0.17947
1.973,0.193235
1.97325,0.190923
1.9735,0.184904
1.97375,0.181159
1.974,0.151798
1.97425,0.128035
1.9745,0.0892781
1.97475,0.0535952
1.975,0.00814752
1.97525,-0.0275925
1.9755,-0.0726719
1.97575,-0.106578
1.976,-0.136689
1.97625,-0.152496
1.9765,-0.164243
1.97675,-0.176447
1.977,-0.163909
1.97725,-0.15404
1.9775,-0.139438
1.97775,-0.116868
1.978,-0.0996575
1.97825,-0.0810297
1.9785,-0.057977
1.97875,-0.0436478
1.979,-0.0346936
1.97925,-0.039567
1.9795,-0.0428073
1.97975,-0.0556433
1.98,-0.0760471
1.98025,-0.0912763
1.9805,-0.115587
1.98075,-0.127729
1.981,-0.153819
1.98125,-0.164275
1.9815,-0.170882
1.98175,-0.164239
1.982,-0.156426
1.98225,-0.135884
1.9825,-0.116718
1.98275,-0.0809814
1.983,-0.0438709
1.98325,0.00480465
1.9835,0.0478678
1.98375,0.0805387
1.984,0.119383
1.98425,0.156804
1.9845,0.176686
1.98475,0.191719
1.985,0.194383
1.98525,0.199325
1.9855,0.192711
1.98575,0.177038
1.986,0.157017
1.98625,0.135496
1.9865,0.118674
1.98675,0.0965677
1.987,0.0788008
1.98725,0.0702996
1.9875,0.0724916
1.98775,0.0694783
1.988,0.0854268
1.98825,0.0933557
1.9885,0.113758
1.98875,0.136271
1.989,0.160711
1.98925,0.180864
1.9895,0.192624
1.98975,0.197114
1.99,0.20019
1.99025,0.197313
1.9905,0.178317
1.99075,0.159034
1.991,0.126095
1.99125,0.0938264
1.9915,0.0505732
1.99175,0.011751
1.992,-0.0287489
1.99225,-0.0718395
1.9925,-0.100072
1.99275,-0.13489
1.993,-0.152986
1.99325,-0.163258
1.9935,-0.156909
1.99375,-0.149636
1.994,-0.135279
1.99425,-0.117119
1.9945,-0.10269
1.99475,-0.0768339
1.995,-0.059249
1.99525,-0.0419889
1.9955,-0.0262353
1.99575,-0.028383
1.996,-0.0227904
1.99625,-0.0302735
1.9965,-0.0414876
1.99675,-0.0636793
1.997,-0.0858614
1.99725,-0.101248
1.9975,-0.126203
1.99775,-0.136964
1.998,-0.153789
1.99825,-0.155248
1.9985,-0.146226
1.99875,-0.132169
1.999,-0.114465
1.99925,-0.084628
1.9995,-0.0514433
