Time (s),Channel 1 (V)
0,0.0331853
0.00025,0.0763204
0.0005,0.110332
0.00075,0.150247
0.001,0.178018
0.00125,0.209997
0.0015,0.234501
0.00175,0.245092
0.002,0.253023
0.00225,0.251949
0.0025,0.247527
0.00275,0.229096
0.003,0.217196
0.00325,0.194997
0.0035,0.169759
0.00375,0.143011
0.004,0.122015
0.00425,0.0934201
0.0045,0.0764285
0.00475,0.0590027
0.005,0.0427603
0.00525,0.0333354
0.0055,0.033371
0.00575,0.0245704
0.006,0.0304499
0.00625,0.0367542
0.0065,0.040183
0.00675,0.0419658
0.007,0.0454531
0.00725,0.0532955
0.0075,0.0618991
0.00775,0.0587802
0.008,0.0484427
0.00825,0.0476075
0.0085,0.0297889
0.00875,0.0120075
0.009,-0.0102781
0.00925,-0.0237122
0.0095,-0.0480653
0.00975,-0.0792234
0.01,-0.103038
0.01025,-0.127826
0.0105,-0.142648
0.01075,-0.158683
0.011,-0.162593
0.01125,-0.169963
0.0115,-0.161782
0.01175,-0.144807
0.012,-0.132184
0.01225,-0.106886
0.0125,-0.0726935
0.01275,-0.0395038
0.013,0.00318013
0.01325,0.0431271
0.0135,0.0809805
0.01375,0.120922
0.014,0.157704
0.01425,0.199508
0.0145,0.227393
0.01475,0.245388
0.015,0.265928
0.01525,0.277878
0.0155,0.275174
0.01575,0.273781
0.016,0.266496
0.01625,0.247818
0.0165,0.229394
0.01675,0.207935
0.017,0.185792
0.01725,0.153269
0.0175,0.133769
0.01775,0.108257
0.018,0.0966532
0.01825,0.0771494
0.0185,0.0622152
0.01875,0.0588588
0.019,0.0594371
0.01925,0.0554802
0.0195,0.0597517
0.01975,0.0669532
0.02,0.076955
0.02025,0.0789763
0.0205,0.0793439
0.02075,0.0880704
0.021,0.08836
0.02125,0.081352
0.0215,0.0744532
0.02175,0.0641105
0.022,0.0509331
0.02225,0.0379589
0.0225,0.00694228
0.02275,-0.0129275
0.023,-0.0407009
0.02325,-0.0650813
0.0235,-0.0841263
0.02375,-0.105373
0.024,-0.115131
0.02425,-0.130787
0.0245,-0.128564
0.02475,-0.126954
0.025,-0.122306
0.02525,-0.0987527
0.0255,-0.0793405
0.02575,-0.0449961
0.026,-0.0188492
0.02625,0.0264868
0.0265,0.0671542
0.02675,0.110684
0.027,0.145715
0.02725,0.192142
0.0275,0.226858
0.02775,0.252722
0.028,0.277241
0.02825,0.30113
0.0285,0.315002
0.02875,0.318031
0.029,0.313085
0.02925,0.304371
0.0295,0.297749
0.02975,0.27198
0.03,0.252134
0.03025,0.230415
0.0305,0.207245
0.03075,0.18338
0.031,0.155397
0.03125,0.142442
0.0315,0.123087
0.03175,0.113594
0.032,0.108943
0.03225,0.100842
0.0325,0.101582
0.03275,0.106388
0.033,0.105516
0.03325,0.1106
0.0335,0.123295
0.03375,0.130851
0.034,0.132007
0.03425,0.133782
0.0345,0.130665
0.03475,0.123902
0.035,0.119131
0.03525,0.106967
0.0355,0.0829942
0.03575,0.0605837
0.036,0.0456766
0.03625,0.016684
0.0365,-0.00504717
0.03675,-0.0301328
0.037,-0.050488
0.03725,-0.0686432
0.0375,-0.0812202
0.03775,-0.0784366
0.038,-0.0836655
0.03825,-0.0711272
0.0385,-0.0630314
0.03875,-0.0362775
0.039,-0.011686
0.03925,0.0240614
0.0395,0.0619235
0.03975,0.101901
0.04,0.140661
0.04025,0.190012
0.0405,0.230914
0.04075,0.264981
0.041,0.302155
0.04125,0.329419
0.0415,0.345477
0.04175,0.363157
0.042,0.367424
0.04225,0.367978
0.0425,0.365402
0.04275,0.350205
0.043,0.332961
0.04325,0.314594
0.0435,0.297189
0.04375,0.275087
0.044,0.248882
0.04425,0.225131
0.0445,0.201609
0.04475,0.1854
0.045,0.173473
0.04525,0.163966
0.0455,0.163916
0.04575,0.155359
0.046,0.158056
0.04625,0.167217
0.0465,0.173618
0.04675,0.173715
0.047,0.181888
0.04725,0.189539
0.0475,0.192069
0.04775,0.188603
0.048,0.19295
0.04825,0.176937
0.0485,0.168916
0.04875,0.153378
0.049,0.135431
0.04925,0.114229
0.0495,0.0868774
0.04975,0.0705126
0.05,0.0467549
0.05025,0.0205723
0.0505,0.00456223
0.05075,-0.0122946
0.051,-0.0182723
0.05125,-0.014157
0.0515,-0.0146102
0.05175,-0.000871045
0.052,0.0231299
0.05225,0.0497911
0.0525,0.0837583
0.05275,0.115641
0.053,0.160169
0.05325,0.201147
0.0535,0.244465
0.05375,0.286262
0.054,0.320365
0.05425,0.354319
0.0545,0.385329
0.05475,0.413779
0.055,0.429904
0.05525,0.438843
0.0555,0.441519
0.05575,0.435397
0.056,0.426943
0.05625,0.418189
0.0565,0.391187
0.05675,0.371731
0.057,0.346639
0.05725,0.323075
0.0575,0.308404
0.05775,0.285115
0.058,0.265632
0.05825,0.246761
0.0585,0.237861
0.05875,0.235846
0.059,0.234354
0.05925,0.229477
0.0595,0.232984
0.05975,0.241616
0.06,0.252923
0.06025,0.26063
0.0605,0.269408
0.06075,0.271672
0.061,0.270237
0.06125,0.266072
0.0615,0.257899
0.06175,0.249767
0.062,0.240652
0.06225,0.215536
0.0625,0.198536
0.06275,0.174319
0.063,0.151066
0.06325,0.126145
0.0635,0.107681
0.06375,0.0903338
0.064,0.0795731
0.06425,0.0669751
0.0645,0.0629341
0.06475,0.0634054
0.065,0.0819582
0.06525,0.0922253
0.0655,0.1224
0.06575,0.153877
0.066,0.187264
0.06625,0.219854
0.0665,0.261843
0.06675,0.313126
0.067,0.349556
0.06725,0.389236
0.0675,0.429189
0.06775,0.463335
0.068,0.488048
0.06825,0.505198
0.0685,0.520878
0.06875,0.527802
0.069,0.525098
0.06925,0.518052
0.0695,0.499937
0.06975,0.482801
0.07,0.46358
0.07025,0.442391
0.0705,0.423107
0.07075,0.402176
0.071,0.375542
0.07125,0.360583
0.0715,0.340023
0.07175,0.329479
0.072,0.321186
0.07225,0.316773
0.0725,0.323768
0.07275,0.326249
0.073,0.325568
0.07325,0.342065
0.0735,0.343105
0.07375,0.347773
0.074,0.354074
0.07425,0.361765
0.0745,0.357141
0.07475,0.351184
0.075,0.345164
0.07525,0.337885
0.0755,0.311603
0.07575,0.297146
0.076,0.277333
0.07625,0.248692
0.0765,0.226811
0.07675,0.211328
0.077,0.190959
0.07725,0.16804
0.0775,0.16409
0.07775,0.15845
0.078,0.158157
0.07825,0.160176
0.0785,0.184488
0.07875,0.198314
0.079,0.228371
0.07925,0.264197
0.0795,0.306901
0.07975,0.345427
0.08,0.383771
0.08025,0.432463
0.0805,0.467105
0.08075,0.510864
0.081,0.548925
0.08125,0.572344
0.0815,0.590395
0.08175,0.614872
0.082,0.614312
0.08225,0.618529
0.0825,0.61193
0.08275,0.600639
0.083,0.589616
0.08325,0.571786
0.0835,0.551718
0.08375,0.526872
0.084,0.497964
0.08425,0.482947
0.0845,0.45892
0.08475,0.44572
0.085,0.428709
0.08525,0.420893
0.0855,0.419152
0.08575,0.412093
0.086,0.41882
0.08625,0.425625
0.0865,0.430434
0.08675,0.43566
0.087,0.444882
0.08725,0.448323
0.0875,0.454893
0.08775,0.454155
0.088,0.450752
0.08825,0.449543
0.0885,0.43064
0.08875,0.420981
0.089,0.40305
0.08925,0.381641
0.0895,0.359679
0.08975,0.328418
0.09,0.314824
0.09025,0.288533
0.0905,0.272311
0.09075,0.261053
0.091,0.251004
0.09125,0.251815
0.0915,0.254993
0.09175,0.271743
0.092,0.293225
0.09225,0.316764
0.0925,0.354878
0.09275,0.39089
0.093,0.426437
0.09325,0.471807
0.0935,0.510567
0.09375,0.552303
0.094,0.594452
0.09425,0.631906
0.0945,0.660736
0.09475,0.681331
0.095,0.698653
0.09525,0.716052
0.0955,0.715663
0.09575,0.710633
0.096,0.70622
0.09625,0.694985
0.0965,0.676001
0.09675,0.65328
0.097,0.631967
0.09725,0.604477
0.0975,0.578818
0.09775,0.557595
0.098,0.543601
0.09825,0.534636
0.0985,0.524433
0.09875,0.515081
0.099,0.515902
0.09925,0.517176
0.0995,0.523231
0.09975,0.528635
0.1,0.530627
0.10025,0.544556
0.1005,0.550335
0.10075,0.545786
0.101,0.555678
0.10125,0.547621
0.1015,0.540895
0.10175,0.529939
0.102,0.521032
0.10225,0.502586
0.1025,0.485253
0.10275,0.461749
0.103,0.435742
0.10325,0.409399
0.1035,0.393326
0.10375,0.375449
0.104,0.354972
0.10425,0.34644
0.1045,0.348355
0.10475,0.349717
0.105,0.359788
0.10525,0.378339
0.1055,0.402768
0.10575,0.429645
0.106,0.471339
0.10625,0.508356
0.1065,0.544177
0.10675,0.586711
0.107,0.634672
0.10725,0.6694
0.1075,0.711559
0.10775,0.737772
0.108,0.768615
0.10825,0.784516
0.1085,0.800024
0.10875,0.804291
0.109,0.80383
0.10925,0.802165
0.1095,0.789643
0.10975,0.765821
0.11,0.750937
0.11025,0.723453
0.1105,0.703258
0.11075,0.677006
0.111,0.654269
0.11125,0.632977
0.1115,0.619894
0.11175,0.609734
0.112,0.598381
0.11225,0.601675
0.1125,0.595802
0.11275,0.600473
0.113,0.604072
0.11325,0.611049
0.1135,0.617633
0.11375,0.629561
0.114,0.635554
0.11425,0.633177
0.1145,0.634881
0.11475,0.629776
0.115,0.62336
0.11525,0.610544
0.1155,0.589621
0.11575,0.569945
0.116,0.544823
0.11625,0.527369
0.1165,0.49748
0.11675,0.474751
0.117,0.456811
0.11725,0.436946
0.1175,0.43346
0.11775,0.427554
0.118,0.427857
0.11825,0.427464
0.1185,0.442151
0.11875,0.466564
0.119,0.500168
0.11925,0.528092
0.1195,0.569208
0.11975,0.607187
0.12,0.650424
0.12025,0.696126
0.1205,0.734895
0.12075,0.774877
0.121,0.802987
0.12125,0.826743
0.1215,0.853056
0.12175,0.872455
0.122,0.879311
0.12225,0.878751
0.1225,0.870635
0.12275,0.860192
0.123,0.840363
0.12325,0.822902
0.1235,0.796117
0.12375,0.77463
0.124,0.753869
0.12425,0.726537
0.1245,0.709787
0.12475,0.689031
0.125,0.672454
0.12525,0.671569
0.1255,0.65938
0.12575,0.660058
0.126,0.666661
0.12625,0.665745
0.1265,0.675978
0.12675,0.676958
0.127,0.682745
0.12725,0.692293
0.1275,0.68873
0.12775,0.6892
0.128,0.6883
0.12825,0.683529
0.1285,0.66666
0.12875,0.651138
0.129,0.632466
0.12925,0.612824
0.1295,0.587819
0.12975,0.563702
0.13,0.536177
0.13025,0.511053
0.1305,0.500876
0.13075,0.483279
0.131,0.476148
0.13125,0.472021
0.1315,0.479177
0.13175,0.489688
0.132,0.510377
0.13225,0.535381
0.1325,0.564098
0.13275,0.596036
0.133,0.640326
0.13325,0.683407
0.1335,0.726897
0.13375,0.761984
0.134,0.804413
0.13425,0.832922
0.1345,0.866022
0.13475,0.884894
0.135,0.907032
0.13525,0.910193
0.1355,0.91648
0.13575,0.914905
0.136,0.904942
0.13625,0.889065
0.1365,0.867723
0.13675,0.839971
0.137,0.8148
0.13725,0.791609
0.1375,0.76943
0.13775,0.748224
0.138,0.73081
0.13825,0.708967
0.1385,0.702048
0.13875,0.697451
0.139,0.690216
0.13925,0.689908
0.1395,0.695765
0.13975,0.693322
0.14,0.701861
0.14025,0.709572
0.1405,0.717804
0.14075,0.712145
0.141,0.716958
0.14125,0.713706
0.1415,0.699186
0.14175,0.690438
0.142,0.675939
0.14225,0.657945
0.1425,0.63118
0.14275,0.608098
0.143,0.582495
0.14325,0.56277
0.1435,0.536257
0.14375,0.513279
0.144,0.496816
0.14425,0.486854
0.1445,0.485071
0.14475,0.484188
0.145,0.491132
0.14525,0.511281
0.1455,0.529438
0.14575,0.563859
0.146,0.595307
0.14625,0.630529
0.1465,0.669535
0.14675,0.712311
0.147,0.750149
0.14725,0.792512
0.1475,0.823855
0.14775,0.851464
0.148,0.88069
0.14825,0.898974
0.1485,0.908042
0.14875,0.915116
0.149,0.906141
0.14925,0.903024
0.1495,0.887235
0.14975,0.863995
0.15,0.845503
0.15025,0.815943
0.1505,0.789362
0.15075,0.766983
0.151,0.746967
0.15125,0.722634
0.1515,0.707218
0.15175,0.692114
0.152,0.678396
0.15225,0.675869
0.1525,0.670834
0.15275,0.672108
0.153,0.677478
0.15325,0.684565
0.1535,0.686755
0.15375,0.691154
0.154,0.699655
0.15425,0.693597
0.1545,0.688492
0.15475,0.689158
0.155,0.674851
0.15525,0.662511
0.1555,0.638475
0.15575,0.615438
0.156,0.591496
0.15625,0.565209
0.1565,0.534978
0.15675,0.511526
0.157,0.491111
0.15725,0.470365
0.1575,0.462068
0.15775,0.454388
0.158,0.45352
0.15825,0.459801
0.1585,0.471727
0.15875,0.492094
0.159,0.51097
0.15925,0.541316
0.1595,0.580816
0.15975,0.620103
0.16,0.658666
0.16025,0.697633
0.1605,0.73482
0.16075,0.771926
0.161,0.798733
0.16125,0.825809
0.1615,0.844774
0.16175,0.85688
0.162,0.86041
0.16225,0.858272
0.1625,0.850262
0.16275,0.84467
0.163,0.820447
0.16325,0.800069
0.1635,0.770509
0.16375,0.745378
0.164,0.722475
0.16425,0.690492
0.1645,0.670921
0.16475,0.650956
0.165,0.637188
0.16525,0.622059
0.1655,0.613518
0.16575,0.607892
0.166,0.610645
0.16625,0.609405
0.1665,0.614699
0.16675,0.62023
0.167,0.630223
0.16725,0.631325
0.1675,0.631165
0.16775,0.621529
0.168,0.613898
0.16825,0.608356
0.1685,0.591409
0.16875,0.57692
0.169,0.551326
0.16925,0.526163
0.1695,0.502925
0.16975,0.470168
0.17,0.449777
0.17025,0.425108
0.1705,0.403683
0.17075,0.384533
0.171,0.377055
0.17125,0.374475
0.1715,0.377286
0.17175,0.378585
0.172,0.402108
0.17225,0.423725
0.1725,0.450347
0.17275,0.482503
0.173,0.521382
0.17325,0.561093
0.1735,0.595052
0.17375,0.638966
0.174,0.66814
0.17425,0.704767
0.1745,0.726721
0.17475,0.746684
0.175,0.76757
0.17525,0.771613
0.1755,0.773806
0.17575,0.760711
0.176,0.753299
0.17625,0.734024
0.1765,0.710287
0.17675,0.687155
0.177,0.656437
0.17725,0.631819
0.1775,0.603526
0.17775,0.575496
0.178,0.555719
0.17825,0.537273
0.1785,0.524568
0.17875,0.512689
0.179,0.50761
0.17925,0.504142
0.1795,0.503231
0.17975,0.505254
0.18,0.515758
0.18025,0.512772
0.1805,0.51464
0.18075,0.513795
0.181,0.50977
0.18125,0.507299
0.1815,0.500461
0.18175,0.483028
0.182,0.462576
0.18225,0.440738
0.1825,0.417303
0.18275,0.392729
0.183,0.36847
0.18325,0.336298
0.1835,0.309592
0.18375,0.290946
0.184,0.26591
0.18425,0.251585
0.1845,0.252134
0.18475,0.24551
0.185,0.256369
0.18525,0.268938
0.1855,0.282758
0.18575,0.315137
0.186,0.344737
0.18625,0.376279
0.1865,0.420764
0.18675,0.454865
0.187,0.488746
0.18725,0.533161
0.1875,0.556921
0.18775,0.592381
0.188,0.60712
0.18825,0.622933
0.1885,0.639973
0.18875,0.63788
0.189,0.632577
0.18925,0.618605
0.1895,0.599767
0.18975,0.579688
0.19,0.551125
0.19025,0.524786
0.1905,0.500713
0.19075,0.474627
0.191,0.44788
0.19125,0.426472
0.1915,0.403542
0.19175,0.392133
0.192,0.370922
0.19225,0.370288
0.1925,0.362253
0.19275,0.365166
0.193,0.36193
0.19325,0.370721
0.1935,0.371014
0.19375,0.368949
0.194,0.369801
0.19425,0.364981
0.1945,0.361962
0.19475,0.352605
0.195,0.340798
0.19525,0.327248
0.1955,0.300662
0.19575,0.280694
0.196,0.253327
0.19625,0.220352
0.1965,0.199915
0.19675,0.170663
0.197,0.141617
0.19725,0.126526
0.1975,0.112149
0.19775,0.102277
0.198,0.0989913
0.19825,0.0950865
0.1985,0.104246
0.19875,0.130558
0.199,0.152673
0.19925,0.176199
0.1995,0.213951
0.19975,0.248632
0.2,0.29032
0.20025,0.319548
0.2005,0.356206
0.20075,0.390942
0.201,0.422601
0.20125,0.441984
0.2015,0.459134
0.20175,0.471276
0.202,0.473455
0.20225,0.477025
0.2025,0.459845
0.20275,0.45258
0.203,0.422833
0.20325,0.399818
0.2035,0.377808
0.20375,0.34678
0.204,0.322233
0.20425,0.290473
0.2045,0.269068
0.20475,0.243378
0.205,0.226979
0.20525,0.217392
0.2055,0.205327
0.20575,0.201435
0.206,0.19852
0.20625,0.19385
0.2065,0.203317
0.20675,0.201304
0.207,0.209991
0.20725,0.204708
0.2075,0.206566
0.20775,0.196163
0.208,0.195839
0.20825,0.177068
0.2085,0.167173
0.20875,0.145723
0.209,0.124004
0.20925,0.0964942
0.2095,0.0648817
0.20975,0.0341465
0.21,0.0111024
0.21025,-0.0148
0.2105,-0.0374637
0.21075,-0.0502726
0.211,-0.0648285
0.21125,-0.0767864
0.2115,-0.0692284
0.21175,-0.0594516
0.212,-0.0470512
0.21225,-0.0252561
0.2125,0.00180863
0.21275,0.0362538
0.213,0.0653138
0.21325,0.103953
0.2135,0.144744
0.21375,0.179859
0.214,0.219269
0.21425,0.248998
0.2145,0.269969
0.21475,0.286824
0.215,0.302736
0.21525,0.305044
0.2155,0.312864
0.21575,0.300342
0.216,0.286686
0.21625,0.26756
0.2165,0.245697
0.21675,0.215188
0.217,0.193182
0.21725,0.160586
0.2175,0.139422
0.21775,0.10633
0.218,0.0853873
0.21825,0.0634715
0.2185,0.0528001
0.21875,0.0445083
0.219,0.0312775
0.21925,0.0367962
0.2195,0.0369385
0.21975,0.0374386
0.22,0.0354061
0.22025,0.0394005
0.2205,0.0403242
0.22075,0.0425537
0.221,0.0339332
0.22125,0.0279415
0.2215,0.0151995
0.22175,0.00220513
0.222,-0.0174353
0.22225,-0.0363676
0.2225,-0.0575765
0.22275,-0.0883683
0.223,-0.113124
0.22325,-0.146405
0.2235,-0.167416
0.22375,-0.198187
0.224,-0.211435
0.22425,-0.227437
0.2245,-0.235932
0.22475,-0.233742
0.225,-0.223724
0.22525,-0.218221
0.2255,-0.190884
0.22575,-0.170939
0.226,-0.139553
0.22625,-0.101025
0.2265,-0.0630436
0.22675,-0.0262011
0.227,0.0138905
0.22725,0.0483907
0.2275,0.0808864
0.22775,0.103303
0.228,0.132012
0.22825,0.140804
0.2285,0.147412
0.22875,0.15238
0.229,0.145681
0.22925,0.135161
0.2295,0.118332
0.22975,0.0976914
0.23,0.0690238
0.23025,0.0497658
0.2305,0.0175197
0.23075,-0.00863878
0.231,-0.0327095
0.23125,-0.0610178
0.2315,-0.0820698
0.23175,-0.0978081
0.232,-0.104297
0.23225,-0.109212
0.2325,-0.112528
0.23275,-0.120403
0.233,-0.120339
0.23325,-0.115578
0.2335,-0.113334
0.23375,-0.106549
0.234,-0.10613
0.23425,-0.103718
0.2345,-0.117101
0.23475,-0.123878
0.235,-0.135181
0.23525,-0.153588
0.2355,-0.170124
0.23575,-0.194403
0.236,-0.224008
0.23625,-0.249163
0.2365,-0.273087
0.23675,-0.298919
0.237,-0.325136
0.23725,-0.343608
0.2375,-0.362753
0.23775,-0.371037
0.238,-0.372492
0.23825,-0.365534
0.2385,-0.353677
0.23875,-0.336887
0.239,-0.311406
0.23925,-0.280408
0.2395,-0.250804
0.23975,-0.21067
0.24,-0.170555
0.24025,-0.131224
0.2405,-0.0937354
0.24075,-0.0670781
0.241,-0.0335814
0.24125,-0.00726497
0.2415,0.0150677
0.24175,0.0192229
0.242,0.0255601
0.24225,0.0218493
0.2425,0.0141967
0.24275,0.0010134
0.243,-0.014892
0.24325,-0.0438377
0.2435,-0.0640848
0.24375,-0.0967254
0.244,-0.118376
0.24425,-0.149974
0.2445,-0.166242
0.24475,-0.187395
0.245,-0.205905
0.24525,-0.220588
0.2455,-0.231506
0.24575,-0.233335
0.246,-0.231275
0.24625,-0.228117
0.2465,-0.22456
0.24675,-0.218053
0.247,-0.223002
0.24725,-0.211553
0.2475,-0.220103
0.24775,-0.223143
0.248,-0.225048
0.24825,-0.239122
0.2485,-0.246188
0.24875,-0.273611
0.249,-0.293232
0.24925,-0.31412
0.2495,-0.338776
0.24975,-0.365903
0.25,-0.398417
0.25025,-0.423027
0.2505,-0.442127
0.25075,-0.456724
0.251,-0.46616
0.25125,-0.467518
0.2515,-0.461941
0.25175,-0.456779
0.252,-0.442023
0.25225,-0.412182
0.2525,-0.385476
0.25275,-0.357115
0.253,-0.318361
0.25325,-0.275302
0.2535,-0.235474
0.25375,-0.19837
0.254,-0.163679
0.25425,-0.129237
0.2545,-0.102088
0.25475,-0.0751502
0.255,-0.0607302
0.25525,-0.0569878
0.2555,-0.0541298
0.25575,-0.0638017
0.256,-0.0744874
0.25625,-0.0910113
0.2565,-0.112251
0.25675,-0.139694
0.257,-0.163945
0.25725,-0.185907
0.2575,-0.216515
0.25775,-0.237197
0.258,-0.259866
0.25825,-0.274767
0.2585,-0.289481
0.25875,-0.289575
0.259,-0.302315
0.25925,-0.302616
0.2595,-0.296953
0.25975,-0.298301
0.26,-0.286009
0.26025,-0.28372
0.2605,-0.280198
0.26075,-0.278647
0.261,-0.282338
0.26125,-0.279535
0.2615,-0.293529
0.26175,-0.30521
0.262,-0.317512
0.26225,-0.343032
0.2625,-0.366144
0.26275,-0.383643
0.263,-0.414157
0.26325,-0.436485
0.2635,-0.463513
0.26375,-0.481604
0.264,-0.501424
0.26425,-0.51152
0.2645,-0.513906
0.26475,-0.516173
0.265,-0.504563
0.26525,-0.48487
0.2655,-0.465181
0.26575,-0.440327
0.266,-0.40258
0.26625,-0.370261
0.2665,-0.326723
0.26675,-0.284278
0.267,-0.243442
0.26725,-0.206909
0.2675,-0.176445
0.26775,-0.144604
0.268,-0.123987
0.26825,-0.105297
0.2685,-0.0909876
0.26875,-0.0847514
0.269,-0.0883666
0.26925,-0.0996042
0.2695,-0.114817
0.26975,-0.133476
0.27,-0.154301
0.27025,-0.172874
0.2705,-0.199265
0.27075,-0.225042
0.271,-0.250262
0.27125,-0.272094
0.2715,-0.284321
0.27175,-0.297008
0.272,-0.307947
0.27225,-0.315026
0.2725,-0.319962
0.27275,-0.309297
0.273,-0.305337
0.27325,-0.305323
0.2735,-0.294225
0.27375,-0.295428
0.274,-0.288302
0.27425,-0.286657
0.2745,-0.288147
0.27475,-0.293121
0.275,-0.30321
0.27525,-0.32274
0.2755,-0.338381
0.27575,-0.359999
0.276,-0.384291
0.27625,-0.402119
0.2765,-0.432246
0.27675,-0.450206
0.277,-0.46989
0.27725,-0.493918
0.2775,-0.503145
0.27775,-0.513761
0.278,-0.514387
0.27825,-0.507674
0.2785,-0.484106
0.27875,-0.467408
0.279,-0.444248
0.27925,-0.405825
0.2795,-0.367602
0.27975,-0.325407
0.28,-0.292238
0.28025,-0.248373
0.2805,-0.204604
0.28075,-0.16956
0.281,-0.139331
0.28125,-0.107444
0.2815,-0.0865429
0.28175,-0.0734185
0.282,-0.0619249
0.28225,-0.0642337
0.2825,-0.072355
0.28275,-0.0815272
0.283,-0.101159
0.28325,-0.124255
0.2835,-0.14351
0.28375,-0.1668
0.284,-0.189059
0.28425,-0.217578
0.2845,-0.2387
0.28475,-0.253735
0.285,-0.269362
0.28525,-0.270831
0.2855,-0.281759
0.28575,-0.283296
0.286,-0.277416
0.28625,-0.275306
0.2865,-0.271427
0.28675,-0.267265
0.287,-0.260944
0.28725,-0.255135
0.2875,-0.252763
0.28775,-0.247863
0.288,-0.250106
0.28825,-0.260607
0.2885,-0.273936
0.28875,-0.285917
0.289,-0.307666
0.28925,-0.324273
0.2895,-0.353989
0.28975,-0.376884
0.29,-0.404322
0.29025,-0.421349
0.2905,-0.441973
0.29075,-0.454686
0.291,-0.455657
0.29125,-0.458539
0.2915,-0.457768
0.29175,-0.441129
0.292,-0.421269
0.29225,-0.393607
0.2925,-0.364165
0.29275,-0.330729
0.293,-0.284789
0.29325,-0.241559
0.2935,-0.204611
0.29375,-0.157022
0.294,-0.12775
0.29425,-0.090397
0.2945,-0.0591282
0.29475,-0.0357798
0.295,-0.0123843
0.29525,-0.00771571
0.2955,-0.00534141
0.29575,-0.00954753
0.296,-0.0152945
0.29625,-0.0296309
0.2965,-0.0445916
0.29675,-0.0681989
0.297,-0.0971559
0.29725,-0.121277
0.2975,-0.137289
0.29775,-0.164229
0.298,-0.174676
0.29825,-0.190659
0.2985,-0.199336
0.29875,-0.212811
0.299,-0.210799
0.29925,-0.212983
0.2995,-0.205597
0.29975,-0.19951
0.3,-0.187202
0.30025,-0.183655
0.3005,-0.177644
0.30075,-0.17773
0.301,-0.172127
0.30125,-0.176001
0.3015,-0.178042
0.30175,-0.185391
0.302,-0.204221
0.30225,-0.22352
0.3025,-0.242373
0.30275,-0.265587
0.303,-0.292243
0.30325,-0.310213
0.3035,-0.329274
0.30375,-0.346961
0.304,-0.362725
0.30425,-0.378915
0.3045,-0.378633
0.30475,-0.377777
0.305,-0.358539
0.30525,-0.349631
0.3055,-0.316114
0.30575,-0.29274
0.306,-0.253128
0.30625,-0.214551
0.3065,-0.178274
0.30675,-0.126308
0.307,-0.0854188
0.30725,-0.0435459
0.3075,-0.0141696
0.30775,0.025989
0.308,0.0461736
0.30825,0.0688976
0.3085,0.0861759
0.30875,0.0885969
0.309,0.0903202
0.30925,0.0815749
0.3095,0.0650626
0.30975,0.0497731
0.31,0.0297774
0.31025,0.00690248
0.3105,-0.0186695
0.31075,-0.0354222
0.311,-0.0567421
0.31125,-0.0745047
0.3115,-0.0949856
0.31175,-0.103717
0.312,-0.110856
0.31225,-0.119618
0.3125,-0.115236
0.31275,-0.109378
0.313,-0.10108
0.31325,-0.103003
0.3135,-0.0909005
0.31375,-0.0816648
0.314,-0.0803432
0.31425,-0.0797073
0.3145,-0.0787199
0.31475,-0.0827801
0.315,-0.0895427
0.31525,-0.102147
0.3155,-0.118281
0.31575,-0.137487
0.316,-0.161069
0.31625,-0.182742
0.3165,-0.209174
0.31675,-0.223094
0.317,-0.24662
0.31725,-0.266376
0.3175,-0.27072
0.31775,-0.274457
0.318,-0.279284
0.31825,-0.268024
0.3185,-0.252281
0.31875,-0.233186
0.319,-0.205755
0.31925,-0.168229
0.3195,-0.130843
0.31975,-0.0871148
0.32,-0.0419413
0.32025,0.000621846
0.3205,0.040748
0.32075,0.0811685
0.321,0.10915
0.32125,0.143506
0.3215,0.163728
0.32175,0.173121
0.322,0.180978
0.32225,0.184544
0.3225,0.185679
0.32275,0.169472
0.323,0.152352
0.32325,0.132064
0.3235,0.112916
0.32375,0.0874346
0.324,0.0655517
0.32425,0.0463609
0.3245,0.0240537
0.32475,0.00455007
0.325,-0.00283577
0.32525,-0.0112071
0.3255,-0.014188
0.32575,-0.0205545
0.326,-0.0140439
0.32625,-0.00675791
0.3265,-0.00344739
0.32675,0.00744975
0.327,0.0125329
0.32725,0.0201395
0.3275,0.0205008
0.32775,0.0233401
0.328,0.0226973
0.32825,0.0156634
0.3285,0.0025596
0.32875,-0.0136159
0.329,-0.0322318
0.32925,-0.0573922
0.3295,-0.0747162
0.32975,-0.104558
0.33,-0.123529
0.33025,-0.148
0.3305,-0.161393
0.33075,-0.178012
0.331,-0.184562
0.33125,-0.185298
0.3315,-0.174907
0.33175,-0.161128
0.332,-0.146054
0.33225,-0.122649
0.3325,-0.0864956
0.33275,-0.0456594
0.333,-0.0102532
0.33325,0.0352683
0.3335,0.0780496
0.33375,0.114055
0.334,0.160179
0.33425,0.192764
0.3345,0.219501
0.33475,0.246733
0.335,0.258869
0.33525,0.274614
0.3355,0.275184
0.33575,0.277942
0.336,0.261666
0.33625,0.250323
0.3365,0.233994
0.33675,0.205927
0.337,0.185277
0.33725,0.160958
0.3375,0.144071
0.33775,0.116222
0.338,0.103005
0.33825,0.0832489
0.3385,0.0781795
0.33875,0.0753405
0.339,0.0729966
0.33925,0.0660927
0.3395,0.0740698
0.33975,0.076933
0.34,0.0837994
0.34025,0.0982355
0.3405,0.101723
0.34075,0.101619
0.341,0.104306
0.34125,0.0976245
0.3415,0.0914534
0.34175,0.0827569
0.342,0.0719714
0.34225,0.0564117
0.3425,0.0329179
0.34275,0.00998539
0.343,-0.0173836
0.34325,-0.0394904
0.3435,-0.0610099
0.34375,-0.0806193
0.344,-0.0963403
0.34425,-0.100689
0.3445,-0.11223
0.34475,-0.100071
0.345,-0.0956544
0.34525,-0.0764612
0.3455,-0.0513609
0.34575,-0.0247557
0.346,0.0114922
0.34625,0.0527421
0.3465,0.0931091
0.34675,0.136065
0.347,0.178443
0.34725,0.213899
0.3475,0.247275
0.34775,0.281707
0.348,0.305242
0.34825,0.32886
0.3485,0.339013
0.34875,0.341274
0.349,0.338753
0.34925,0.338283
0.3495,0.323714
0.34975,0.305757
0.35,0.284595
0.35025,0.256747
0.3505,0.232749
0.35075,0.207665
0.351,0.188431
0.35125,0.171936
0.3515,0.149874
0.35175,0.14486
0.352,0.128605
0.35225,0.12834
0.3525,0.131823
0.35275,0.128628
0.353,0.131389
0.35325,0.140952
0.3535,0.152114
0.35375,0.155578
0.354,0.161364
0.35425,0.160918
0.3545,0.157491
0.35475,0.148865
0.355,0.141689
0.35525,0.127921
0.3555,0.108903
0.35575,0.0917157
0.356,0.0700205
0.35625,0.0382946
0.3565,0.0233415
0.35675,-0.00372162
0.357,-0.0243263
0.35725,-0.0471893
0.3575,-0.0526437
0.35775,-0.0568173
0.358,-0.0645291
0.35825,-0.0488309
0.3585,-0.0413399
0.35875,-0.0136526
0.359,0.00472556
0.35925,0.0406297
0.3595,0.0747347
0.35975,0.118992
0.36,0.16189
0.36025,0.19994
0.3605,0.240325
0.36075,0.278632
0.361,0.305646
0.36125,0.336762
0.3615,0.354224
0.36175,0.374488
0.362,0.379206
0.36225,0.380758
0.3625,0.377849
0.36275,0.35947
0.363,0.342294
0.36325,0.319232
0.3635,0.300803
0.36375,0.273319
0.364,0.245226
0.36425,0.221001
0.3645,0.204187
0.36475,0.186115
0.365,0.177159
0.36525,0.159158
0.3655,0.15539
0.36575,0.155592
0.366,0.156141
0.36625,0.16176
0.3665,0.165848
0.36675,0.165137
0.367,0.171284
0.36725,0.175354
0.3675,0.183848
0.36775,0.178313
0.368,0.177306
0.36825,0.162867
0.3685,0.15458
0.36875,0.130849
0.369,0.117801
0.36925,0.0903831
0.3695,0.0707256
0.36975,0.0424637
0.37,0.0132311
0.37025,-0.00748204
0.3705,-0.0223969
0.37075,-0.0363252
0.371,-0.0456458
0.37125,-0.046638
0.3715,-0.0498983
0.37175,-0.0305621
0.372,-0.0175425
0.37225,0.0111641
0.3725,0.0370405
0.37275,0.0734009
0.373,0.116964
0.37325,0.152327
0.3735,0.193454
0.37375,0.236982
0.374,0.273686
0.37425,0.305634
0.3745,0.336134
0.37475,0.360307
0.375,0.367686
0.37525,0.384499
0.3755,0.377501
0.37575,0.376085
0.376,0.368072
0.37625,0.344122
0.3765,0.325723
0.37675,0.301123
0.377,0.274976
0.37725,0.25508
0.3775,0.234169
0.37775,0.203329
0.378,0.18375
0.37825,0.172753
0.3785,0.162875
0.37875,0.152694
0.379,0.144313
0.37925,0.148123
0.3795,0.148793
0.37975,0.148106
0.38,0.154057
0.38025,0.158355
0.3805,0.169462
0.38075,0.174299
0.381,0.165367
0.38125,0.162299
0.3815,0.159662
0.38175,0.142899
0.382,0.128357
0.38225,0.111231
0.3825,0.0873093
0.38275,0.0647261
0.383,0.032641
0.38325,0.0126367
0.3835,-0.00995785
0.38375,-0.0392298
0.384,-0.0548483
0.38425,-0.0636032
0.3845,-0.0695823
0.38475,-0.068161
0.385,-0.063317
0.38525,-0.0479012
0.3855,-0.0209213
0.38575,0.00628872
0.386,0.0416803
0.38625,0.0733848
0.3865,0.120542
0.38675,0.152122
0.387,0.200729
0.38725,0.236936
0.3875,0.267306
0.38775,0.29617
0.388,0.318655
0.38825,0.343933
0.3885,0.350499
0.38875,0.351133
0.389,0.350266
0.38925,0.341408
0.3895,0.324101
0.38975,0.306389
0.39,0.2787
0.39025,0.261497
0.3905,0.235959
0.39075,0.205888
0.391,0.184761
0.39125,0.158375
0.3915,0.147568
0.39175,0.127593
0.392,0.115625
0.39225,0.118661
0.3925,0.107513
0.39275,0.114095
0.393,0.115138
0.39325,0.117422
0.3935,0.125615
0.39375,0.129481
0.394,0.131175
0.39425,0.131955
0.3945,0.130073
0.39475,0.126322
0.395,0.107098
0.39525,0.0904662
0.3955,0.0716867
0.39575,0.0551864
0.396,0.0253764
0.39625,-0.00129239
0.3965,-0.0188279
0.39675,-0.0446796
0.397,-0.0651188
0.39725,-0.0836147
0.3975,-0.0981878
0.39775,-0.114475
0.398,-0.105801
0.39825,-0.101008
0.3985,-0.0916328
0.39875,-0.0740412
0.399,-0.04898
0.39925,-0.0118521
0.3995,0.0184274
0.39975,0.0597219
0.4,0.0968249
0.40025,0.137154
0.4005,0.17188
0.40075,0.208322
0.401,0.23897
0.40125,0.266483
0.4015,0.287827
0.40175,0.296145
0.402,0.307765
0.40225,0.302895
0.4025,0.293328
0.40275,0.287113
0.403,0.264932
0.40325,0.241749
0.4035,0.21766
0.40375,0.190094
0.404,0.163315
0.40425,0.140029
0.4045,0.117879
0.40475,0.0964243
0.405,0.0884675
0.40525,0.0759516
0.4055,0.0662381
0.40575,0.0574417
0.406,0.0606692
0.40625,0.0668983
0.4065,0.0647606
0.40675,0.0711167
0.407,0.0812311
0.40725,0.076855
0.4075,0.0821151
0.40775,0.0792017
0.408,0.0727005
0.40825,0.0579489
0.4085,0.0480643
0.40875,0.0289828
0.409,0.00662119
0.40925,-0.0150346
0.4095,-0.0387447
0.40975,-0.0715223
0.41,-0.0889599
0.41025,-0.117248
0.4105,-0.13221
0.41075,-0.155692
0.411,-0.16305
0.41125,-0.165427
0.4115,-0.159447
0.41175,-0.1477
0.412,-0.132286
0.41225,-0.108596
0.4125,-0.0792898
0.41275,-0.0436792
0.413,-0.00873776
0.41325,0.0328785
0.4135,0.0700895
0.41375,0.113291
0.414,0.144701
0.41425,0.176688
0.4145,0.207417
0.41475,0.23225
0.415,0.238926
0.41525,0.250314
0.4155,0.253933
0.41575,0.244445
0.416,0.234275
0.41625,0.212885
0.4165,0.194775
0.41675,0.168772
0.417,0.141949
0.41725,0.121707
0.4175,0.0967031
0.41775,0.0709342
0.418,0.0529129
0.41825,0.0369463
0.4185,0.0187969
0.41875,0.0136221
0.419,0.00832348
0.41925,0.00696467
0.4195,0.0091319
0.41975,0.014512
0.42,0.0126828
0.42025,0.0178854
0.4205,0.0271635
0.42075,0.0226258
0.421,0.030488
0.42125,0.0256665
0.4215,0.011237
0.42175,-0.000661586
0.422,-0.013889
0.42225,-0.0372833
0.4225,-0.0615041
0.42275,-0.0849389
0.423,-0.111451
0.42325,-0.136393
0.4235,-0.158089
0.42375,-0.183142
0.424,-0.201646
0.42425,-0.208751
0.4245,-0.216471
0.42475,-0.219882
0.425,-0.207696
0.42525,-0.191888
0.4255,-0.171647
0.42575,-0.142455
0.426,-0.11329
0.42625,-0.0771172
0.4265,-0.0367264
0.42675,0.00383713
0.427,0.049923
0.42725,0.0858834
0.4275,0.112049
0.42775,0.147024
0.428,0.167225
0.42825,0.187692
0.4285,0.198683
0.42875,0.203466
0.429,0.197158
0.42925,0.187727
0.4295,0.170649
0.42975,0.155606
0.43,0.12649
0.43025,0.103309
0.4305,0.0831199
0.43075,0.0513184
0.431,0.0279088
0.43125,0.0112446
0.4315,-0.00953461
0.43175,-0.0229646
0.432,-0.0378625
0.43225,-0.0395536
0.4325,-0.0446505
0.43275,-0.0391617
0.433,-0.0407409
0.43325,-0.0344425
0.4335,-0.0235499
0.43375,-0.0260817
0.434,-0.0153767
0.43425,-0.0203601
0.4345,-0.0216618
0.43475,-0.0334032
0.435,-0.0391056
0.43525,-0.0569995
0.4355,-0.0754189
0.43575,-0.0952902
0.436,-0.126148
0.43625,-0.148411
0.4365,-0.170023
0.43675,-0.193932
0.437,-0.219279
0.43725,-0.236951
0.4375,-0.248581
0.43775,-0.263435
0.438,-0.261599
0.43825,-0.251666
0.4385,-0.245318
0.43875,-0.222543
0.439,-0.193639
0.43925,-0.162347
0.4395,-0.132116
0.43975,-0.0844797
0.44,-0.044866
0.44025,-0.00496435
0.4405,0.0294279
0.44075,0.0707556
0.441,0.0969555
0.44125,0.121605
0.4415,0.144216
0.44175,0.158911
0.442,0.162527
0.44225,0.165861
0.4425,0.156572
0.44275,0.142094
0.443,0.119707
0.44325,0.102228
0.4435,0.0816546
0.44375,0.0548052
0.444,0.0290776
0.44425,0.00340597
0.4445,-0.0217807
0.44475,-0.0349411
0.445,-0.0556862
0.44525,-0.0623458
0.4455,-0.0688846
0.44575,-0.0755578
0.446,-0.0744345
0.44625,-0.0651909
0.4465,-0.0619005
0.44675,-0.0631086
0.447,-0.0578086
0.44725,-0.0474657
0.4475,-0.0520794
0.44775,-0.047344
0.448,-0.0606019
0.44825,-0.0658967
0.4485,-0.0769183
0.44875,-0.100292
0.449,-0.118102
0.44925,-0.141738
0.4495,-0.164586
0.44975,-0.188823
0.45,-0.211616
0.45025,-0.239683
0.4505,-0.263278
0.45075,-0.272796
0.451,-0.285935
0.45125,-0.281186
0.4515,-0.284704
0.45175,-0.271904
0.452,-0.247885
0.45225,-0.227418
0.4525,-0.199673
0.45275,-0.161782
0.453,-0.121845
0.45325,-0.088282
0.4535,-0.0448057
0.45375,-0.00657063
0.454,0.0340385
0.45425,0.0663666
0.4545,0.0963655
0.45475,0.114887
0.455,0.139184
0.45525,0.146741
0.4555,0.140981
0.45575,0.142969
0.456,0.132433
0.45625,0.111277
0.4565,0.0926563
0.45675,0.0677372
0.457,0.0395432
0.45725,0.0158246
0.4575,-0.00468902
0.45775,-0.0246315
0.458,-0.0482885
0.45825,-0.0591768
0.4585,-0.0760989
0.45875,-0.0809478
0.459,-0.0893712
0.45925,-0.0836399
0.4595,-0.0841604
0.45975,-0.0844357
0.46,-0.0761422
0.46025,-0.0661328
0.4605,-0.064652
0.46075,-0.0634925
0.461,-0.0582676
0.46125,-0.069553
0.4615,-0.0723137
0.46175,-0.0841486
0.462,-0.103673
0.46225,-0.123856
0.4625,-0.141879
0.46275,-0.170978
0.463,-0.1919
0.46325,-0.211597
0.4635,-0.23845
0.46375,-0.258814
0.464,-0.276015
0.46425,-0.28911
0.4645,-0.291947
0.46475,-0.291375
0.465,-0.284933
0.46525,-0.268775
0.4655,-0.243718
0.46575,-0.214932
0.466,-0.180865
0.46625,-0.138358
0.4665,-0.103198
0.46675,-0.0547749
0.467,-0.0157213
0.46725,0.018229
0.4675,0.0502444
0.46775,0.0885192
0.468,0.113482
0.46825,0.133617
0.4685,0.141479
0.46875,0.147148
0.469,0.144412
0.46925,0.130122
0.4695,0.11805
0.46975,0.100456
0.47,0.082673
0.47025,0.0534784
0.4705,0.033019
0.47075,0.00336795
0.471,-0.0177525
0.47125,-0.0401426
0.4715,-0.0542157
0.47175,-0.0723775
0.472,-0.0817261
0.47225,-0.0770557
0.4725,-0.0878312
0.47275,-0.0761564
0.473,-0.0736719
0.47325,-0.0679985
0.4735,-0.0675667
0.47375,-0.0590742
0.474,-0.0581339
0.47425,-0.0530698
0.4745,-0.0541887
0.47475,-0.0636384
0.475,-0.0746507
0.47525,-0.085803
0.4755,-0.102932
0.47575,-0.125327
0.476,-0.147595
0.47625,-0.173293
0.4765,-0.200335
0.47675,-0.222827
0.477,-0.23887
0.47725,-0.262071
0.4775,-0.271922
0.47775,-0.279711
0.478,-0.278337
0.47825,-0.275814
0.4785,-0.25412
0.47875,-0.237538
0.479,-0.212031
0.47925,-0.182693
0.4795,-0.137723
0.47975,-0.100151
0.48,-0.0642302
0.48025,-0.0223855
0.4805,0.0166717
0.48075,0.0539987
0.481,0.0928867
0.48125,0.114182
0.4815,0.140716
0.48175,0.148676
0.482,0.158676
0.48225,0.160868
0.4825,0.153839
0.48275,0.139272
0.483,0.119412
0.48325,0.0988561
0.4835,0.0783207
0.48375,0.0542615
0.484,0.0284784
0.48425,0.00943946
0.4845,-0.0135999
0.48475,-0.0289154
0.485,-0.0439885
0.48525,-0.0557795
0.4855,-0.0676456
0.48575,-0.0646362
0.486,-0.0674571
0.48625,-0.0590095
0.4865,-0.050571
0.48675,-0.0449923
0.487,-0.0446778
0.48725,-0.0338967
0.4875,-0.039524
0.48775,-0.0379532
0.488,-0.044744
0.48825,-0.0511399
0.4885,-0.0646282
0.48875,-0.0832819
0.489,-0.0960557
0.48925,-0.120142
0.4895,-0.148941
0.48975,-0.165339
0.49,-0.198633
0.49025,-0.219691
0.4905,-0.229948
0.49075,-0.245006
0.491,-0.257308
0.49125,-0.25615
0.4915,-0.252592
0.49175,-0.243669
0.492,-0.224108
0.49225,-0.20072
0.4925,-0.170064
0.49275,-0.12771
0.493,-0.0909116
0.49325,-0.0564544
0.4935,-0.00789818
0.49375,0.0330594
0.494,0.0674787
0.49425,0.107777
0.4945,0.13085
0.49475,0.152912
0.495,0.169729
0.49525,0.184841
0.4955,0.181858
0.49575,0.181455
0.496,0.168479
0.49625,0.148788
0.4965,0.13492
0.49675,0.111257
0.497,0.0832181
0.49725,0.0666034
0.4975,0.040616
0.49775,0.013424
0.498,-0.000707163
0.49825,-0.0135702
0.4985,-0.0328498
0.49875,-0.0363291
0.499,-0.0405467
0.49925,-0.0416631
0.4995,-0.032097
0.49975,-0.0333087
0.5,-0.0278181
0.50025,-0.0206201
0.5005,-0.00994241
0.50075,-0.00698696
0.501,-0.00517167
0.50125,-0.0169743
0.5015,-0.0231857
0.50175,-0.0286027
0.502,-0.0490347
0.50225,-0.0648287
0.5025,-0.0892486
0.50275,-0.108575
0.503,-0.137551
0.50325,-0.160715
0.5035,-0.181012
0.50375,-0.201197
0.504,-0.214366
0.50425,-0.226846
0.5045,-0.234157
0.50475,-0.232372
0.505,-0.215905
0.50525,-0.20522
0.5055,-0.176873
0.50575,-0.156125
0.506,-0.113888
0.50625,-0.074987
0.5065,-0.0347018
0.50675,0.00696981
0.507,0.0430896
0.50725,0.0780332
0.5075,0.121932
0.50775,0.154175
0.508,0.178429
0.50825,0.192632
0.5085,0.20983
0.50875,2.10E-01
0.509,0.203861
0.50925,0.200871
0.5095,0.187969
0.50975,0.170835
0.51,0.146025
0.51025,0.119328
0.5105,0.0947445
0.51075,0.0698507
0.511,0.0523017
0.51125,0.0315698
0.5115,0.0121582
0.51175,-0.00252212
0.512,-0.00434166
0.51225,-0.0113019
0.5125,-0.0121865
0.51275,-0.00948856
0.513,-0.00898441
0.51325,-0.00231617
0.5135,0.0034008
0.51375,0.00678388
0.514,0.0142112
0.51425,0.0166145
0.5145,0.0157487
0.51475,0.0105551
0.515,-0.00287492
0.51525,-0.0198667
0.5155,-3.45E-02
0.51575,-0.0510212
0.516,-0.0786158
0.51625,-0.100788
0.5165,-0.124743
0.51675,-0.15351
0.517,-0.16644
0.51725,-0.187312
0.5175,-0.203392
0.51775,-0.207391
0.518,-0.206543
0.51825,-0.195867
0.5185,-0.188795
0.51875,-0.16376
0.519,-0.137542
0.51925,-0.109604
0.5195,-0.0640865
0.51975,-0.0250067
0.52,0.0121616
0.52025,0.0506823
0.5205,0.0985149
0.52075,0.130971
0.521,0.164538
0.52125,0.195148
0.5215,0.208255
0.52175,0.228787
0.522,0.230495
0.52225,0.230451
0.5225,0.224854
0.52275,0.213392
0.523,0.198893
0.52325,0.172696
0.5235,0.151452
0.52375,0.13056
0.524,0.100009
0.52425,0.0806842
0.5245,0.0564729
0.52475,0.0395131
0.525,0.0295121
0.52525,0.0166375
0.5255,0.0084794
0.52575,0.00393034
0.526,0.009565
0.52625,0.0103871
0.5265,0.017181
0.52675,0.0289136
0.527,0.0267589
0.52725,0.0302092
0.5275,0.0358504
0.52775,0.0395979
0.528,0.0327749
0.52825,0.0266607
0.5285,0.013785
0.52875,-0.00385887
0.529,-0.032108
0.52925,-0.0487357
0.5295,-0.0764488
0.52975,-0.102782
0.53,-0.128387
0.53025,-0.142863
0.5305,-0.164632
0.53075,-0.176558
0.531,-0.184392
0.53125,-0.185327
0.5315,-0.186719
0.53175,-0.17474
0.532,-0.153001
0.53225,-0.131911
0.5325,-0.0987034
0.53275,-0.0653399
0.533,-0.0238806
0.53325,0.0142592
0.5335,0.0609724
0.53375,0.100463
0.534,0.133653
0.53425,0.166106
0.5345,0.195761
0.53475,0.217206
0.535,0.239336
0.53525,0.24598
0.5355,0.244799
0.53575,0.244976
0.536,0.233426
0.53625,0.21895
0.5365,0.200584
0.53675,0.175528
0.537,0.145745
0.53725,0.125424
0.5375,0.0980348
0.53775,0.0742253
0.538,0.0567398
0.53825,0.0415015
0.5385,0.0287215
0.53875,0.0223316
0.539,0.0207256
0.53925,0.0229882
0.5395,0.0249995
0.53975,0.0309189
0.54,0.0381747
0.54025,0.0449525
0.5405,0.0420236
0.54075,0.0441328
0.541,0.0506206
0.54125,0.0441884
0.5415,0.03487
0.54175,0.0239442
0.542,0.0106754
0.54225,-0.00667185
0.5425,-0.0355913
0.54275,-0.0563007
0.543,-0.0822108
0.54325,-0.110427
0.5435,-0.125256
0.54375,-0.148047
0.544,-0.160659
0.54425,-0.178398
0.5445,-0.183911
0.54475,-0.174452
0.545,-0.168855
0.54525,-0.148062
0.5455,-0.129664
0.54575,-0.100721
0.546,-0.06887
0.54625,-0.0312487
0.5465,0.0140132
0.54675,0.0487049
0.547,0.0911127
0.54725,0.131478
0.5475,0.167676
0.54775,0.199069
0.548,0.221849
0.54825,0.241664
0.5485,0.246817
0.54875,0.258213
0.549,0.250497
0.54925,0.240938
0.5495,0.233509
0.54975,0.215408
0.55,0.189422
0.55025,0.160235
0.5505,0.140299
0.55075,0.110833
0.551,0.0925911
0.55125,0.0720415
0.5515,0.0491051
0.55175,0.0371864
0.552,0.0300184
0.55225,0.0282889
0.5525,0.0225295
0.55275,0.0268005
0.553,0.0335896
0.55325,0.033799
0.5535,0.0399597
0.55375,0.0452545
0.554,0.0479458
0.55425,0.0534329
0.5545,0.0506198
0.55475,0.0435722
0.555,0.0358828
0.55525,0.0171584
0.5555,-0.00292399
0.55575,-0.02401
0.556,-0.0486734
0.55625,-0.0716425
0.5565,-0.0990954
0.55675,-0.119295
0.557,-0.144212
0.55725,-0.162498
0.5575,-0.175946
0.55775,-0.177092
0.558,-0.181936
0.55825,-0.170288
0.5585,-0.159935
0.55875,-0.142491
0.559,-0.11066
0.55925,-0.0829714
0.5595,-0.0442305
0.55975,-0.00818789
0.56,0.0409653
0.56025,0.0768908
0.5605,0.118743
0.56075,0.154532
0.561,0.184484
0.56125,0.209782
0.5615,0.237246
0.56175,0.244226
0.562,0.250403
0.56225,0.255834
0.5625,0.2449
0.56275,0.237534
0.563,0.2143
0.56325,0.19158
0.5635,0.173157
0.56375,0.148242
0.564,0.124097
0.56425,0.0988526
0.5645,0.0766135
0.56475,0.058122
0.565,0.0402346
0.56525,0.0261866
0.5655,0.0262262
0.56575,0.0214318
0.566,0.021186
0.56625,0.0218712
0.5665,0.0350447
0.56675,0.0390923
0.567,0.039107
0.56725,0.04481
0.5675,0.0509785
0.56775,0.0452791
0.568,0.0445621
0.56825,0.0336593
0.5685,0.0219164
0.56875,0.000563947
0.569,-0.0161702
0.56925,-0.0465739
0.5695,-0.0706812
0.56975,-0.0935841
0.57,-0.121326
0.57025,-0.141725
0.5705,-0.155137
0.57075,-0.174953
0.571,-0.181447
0.57125,-0.184535
0.5715,-0.180023
0.57175,-0.166082
0.572,-0.149491
0.57225,-0.124224
0.5725,-0.0968757
0.57275,-0.0629248
0.573,-0.0278378
0.57325,0.0130755
0.5735,0.0561101
0.57375,0.0929548
0.574,0.139233
0.57425,0.172526
0.5745,0.193981
0.57475,0.220834
0.575,0.233287
0.57525,0.23869
0.5755,0.249249
0.57575,0.237857
0.576,0.233035
0.57625,0.211501
0.5765,0.194991
0.57675,0.171727
0.577,0.141889
0.57725,0.122418
0.5775,0.0937992
0.57775,0.0754102
0.578,0.0509783
0.57825,0.0318357
0.5785,0.0281641
0.57875,0.0202327
0.579,0.0103156
0.57925,0.0166171
0.5795,0.0154107
0.57975,0.0183786
0.58,0.0290467
0.58025,0.0322093
0.5805,0.0373002
0.58075,0.0393447
0.581,0.0410144
0.58125,0.0357517
0.5815,0.029133
0.58175,0.0119915
0.582,-0.00801076
0.58225,-0.0206246
0.5825,-0.0494413
0.58275,-0.0652203
0.583,-0.0992798
0.58325,-0.118092
0.5835,-0.14137
0.58375,-0.161531
0.584,-0.184381
0.58425,-0.186865
0.5845,-0.194513
0.58475,-0.19099
0.585,-0.18822
0.58525,-0.16692
0.5855,-0.151336
0.58575,-0.118508
0.586,-0.0860061
0.58625,-0.0505113
0.5865,-0.00778554
0.58675,0.0327097
0.587,0.0701961
0.58725,0.112652
0.5875,0.146924
0.58775,0.176143
0.588,0.204134
0.58825,0.215719
0.5885,0.230379
0.58875,0.232288
0.589,0.229717
0.58925,0.222688
0.5895,0.210687
0.58975,0.186708
0.59,0.170476
0.59025,0.138669
0.5905,0.120713
0.59075,0.0891421
0.591,0.066233
0.59125,0.0511571
0.5915,0.028091
0.59175,0.0135295
0.592,0.00982588
0.59225,0.00444941
0.5925,-0.00143118
0.59275,0.00478527
0.593,0.00621677
0.59325,0.00804469
0.5935,0.019867
0.59375,0.0216606
0.594,0.0296805
0.59425,0.0264015
0.5945,0.0186958
0.59475,0.0178902
0.595,0.00501901
0.59525,-0.00460304
0.5955,-0.0248209
0.59575,-0.0517782
0.596,-0.0683745
0.59625,-0.0984283
0.5965,-0.12053
0.59675,-0.147712
0.597,-0.16812
0.59725,-0.187139
0.5975,-0.194663
0.59775,-0.200839
0.598,-0.20524
0.59825,-0.196523
0.5985,-0.190916
0.59875,-0.161271
0.599,-0.142461
0.59925,-0.10769
0.5995,-0.0746708
0.59975,-0.0274645
0.6,0.0118387
0.60025,0.0524611
0.6005,0.0903523
0.60075,0.129692
0.601,0.160577
0.60125,0.182825
0.6015,0.203118
0.60175,0.221893
0.602,0.227831
0.60225,0.227582
0.6025,0.219073
0.60275,0.205617
0.603,0.18515
0.60325,0.163962
0.6035,0.138492
0.60375,0.112372
0.604,0.0855551
0.60425,0.0662474
0.6045,0.0459546
0.60475,0.0212264
0.605,0.00927321
0.60525,0.00508331
0.6055,-0.00323515
0.60575,-0.0123435
0.606,-0.00932601
0.60625,-0.0063053
0.6065,0.00455642
0.60675,9.62E-03
0.607,0.0090615
0.60725,0.0182651
0.6075,0.0167041
0.60775,0.017728
0.608,0.0126492
0.60825,0.000776215
0.6085,-0.0134599
0.60875,-0.0263603
0.609,-0.0523509
0.60925,-0.0689716
0.6095,-0.10136
0.60975,-0.11863
0.61,-0.144209
0.61025,-0.17228
0.6105,-0.185249
0.61075,-0.201398
0.611,-0.208543
0.61125,-0.217452
0.6115,-0.211776
0.61175,-0.200716
0.612,-0.185471
0.61225,-0.157347
0.6125,-0.125955
0.61275,-0.0917537
0.613,-0.0503869
0.61325,-0.0174438
0.6135,0.0256253
0.61375,0.0672732
0.614,0.106171
0.61425,0.139967
0.6145,0.162585
0.61475,0.189262
0.615,0.209191
0.61525,0.21012
0.6155,0.211306
0.61575,0.211447
0.616,0.204369
0.61625,0.179173
0.6165,0.16347
0.61675,0.138851
0.617,0.113242
0.61725,0.0898951
0.6175,0.0612197
0.61775,0.0414796
0.618,0.0252992
0.61825,0.0122754
0.6185,-0.00514228
0.61875,-0.0108299
0.619,-0.0136028
0.61925,-0.0112322
0.6195,-0.0124838
0.61975,-0.00612502
0.62,-0.00695871
0.62025,-0.00224126
0.6205,0.00466841
0.62075,0.0146025
0.621,0.00822877
0.62125,0.00888721
0.6215,0.00185345
0.62175,-0.0141864
0.622,-0.0337795
0.62225,-0.0449112
0.6225,-0.0731076
0.62275,-0.0915025
0.623,-0.11715
0.62325,-0.151211
0.6235,-0.171573
0.62375,-0.192832
0.624,-0.207836
0.62425,-0.214973
0.6245,-0.22271
0.62475,-0.21917
0.625,-0.209059
0.62525,-0.19372
0.6255,-0.174406
0.62575,-0.142658
0.626,-0.113382
0.62625,-0.0750689
0.6265,-0.0361391
0.62675,0.0122181
0.627,0.0495038
0.62725,0.0878951
0.6275,0.117786
0.62775,0.152215
0.628,0.175416
0.62825,0.198469
0.6285,0.206395
0.62875,0.209346
0.629,0.213764
0.62925,0.197138
0.6295,0.181636
0.62975,0.162303
0.63,0.143319
0.63025,0.118561
0.6305,0.0903473
0.63075,0.0652408
0.631,0.0422077
0.63125,0.0306778
0.6315,0.0140014
0.63175,-0.00100971
0.632,-0.00980356
0.63225,-0.0138745
0.6325,-0.0164293
0.63275,-0.0216336
0.633,-0.00968151
0.63325,-0.00457936
0.6335,-0.000934068
0.63375,0.00403781
0.634,0.0099696
0.63425,0.00303061
0.6345,0.00275742
0.63475,0.00230669
0.635,-0.00928536
0.63525,-0.0237148
0.6355,-0.0419872
0.63575,-0.0705603
0.636,-0.0884161
0.63625,-0.113656
0.6365,-0.140977
0.63675,-0.166191
0.637,-0.184128
0.63725,-0.207462
0.6375,-0.220531
0.63775,-0.220342
0.638,-0.220999
0.63825,-0.221354
0.6385,-0.205861
0.63875,-0.178396
0.639,-0.158045
0.63925,-0.125832
0.6395,-0.0905078
0.63975,-0.0520799
0.64,-0.00297185
0.64025,0.0377253
0.6405,0.0693284
0.64075,0.105716
0.641,0.142988
0.64125,0.169846
0.6415,0.18771
0.64175,0.202038
0.642,0.214621
0.64225,0.209253
0.6425,0.198637
0.64275,0.192244
0.643,0.177384
0.64325,0.153817
0.6435,0.132035
0.64375,0.106371
0.644,0.0788442
0.64425,0.0531925
0.6445,0.0344309
0.64475,0.0108898
0.645,0.0039553
0.64525,-0.0131166
0.6455,-0.0210534
0.64575,-0.0203317
0.646,-0.0191354
0.64625,-0.0158211
0.6465,-0.00709715
0.64675,-0.00898023
0.647,0.00422847
0.64725,0.00828253
0.6475,0.0102483
0.64775,0.00756037
0.648,0.00550474
0.64825,-0.0104446
0.6485,-0.0203802
0.64875,-0.0428373
0.649,-0.053823
0.64925,-0.0781107
0.6495,-0.102728
0.64975,-0.134211
0.65,-0.156747
0.65025,-0.181008
0.6505,-0.192452
0.65075,-0.212703
0.651,-0.222827
0.65125,-0.222459
0.6515,-0.216203
0.65175,-0.208444
0.652,-0.187689
0.65225,-0.167688
0.6525,-0.134986
0.65275,-0.102935
0.653,-0.0569625
0.65325,-0.023041
0.6535,0.0184159
0.65375,0.0597031
0.654,0.102014
0.65425,0.13406
0.6545,0.166938
0.65475,0.186791
0.655,0.201147
0.65525,0.207321
0.6555,0.216349
0.65575,0.206182
0.656,0.199022
0.65625,0.184657
0.6565,0.158454
0.65675,0.134359
0.657,0.108987
0.65725,0.0837535
0.6575,0.0607778
0.65775,0.0378331
0.658,0.0228324
0.65825,0.00576688
0.6585,-0.00488506
0.65875,-0.00983645
0.659,-0.0120685
0.65925,-0.0163825
0.6595,-0.0164621
0.65975,-0.012082
0.66,-0.00212864
0.66025,-0.00257745
0.6605,0.00714949
0.66075,0.00984487
0.661,0.00501548
0.66125,0.00569402
0.6615,-0.00257862
0.66175,-0.0148446
0.662,-0.0314369
0.66225,-0.0461385
0.6625,-0.0698789
0.66275,-0.0987488
0.663,-0.122601
0.66325,-0.144704
0.6635,-0.170076
0.66375,-0.19175
0.664,-0.204897
0.66425,-0.210548
0.6645,-0.219889
0.66475,-0.215045
0.665,-0.206521
0.66525,-0.196524
0.6655,-0.171144
0.66575,-0.141174
0.666,-0.107566
0.66625,-0.0714268
0.6665,-0.0311482
0.66675,0.0141771
0.667,0.0546001
0.66725,0.0922647
0.6675,0.123912
0.66775,0.156205
0.668,0.178068
0.66825,0.200931
0.6685,0.20674
0.66875,0.214722
0.669,0.21525
0.66925,0.208578
0.6695,0.191049
0.66975,0.169563
0.67,0.147457
0.67025,0.129716
0.6705,0.100535
0.67075,0.0708037
0.671,0.0519867
0.67125,0.032536
0.6715,0.0119697
0.67175,-0.00125687
0.672,-0.0104216
0.67225,-0.0100965
0.6725,-0.0142444
0.67275,-0.00945575
0.673,-0.0121975
0.67325,-0.00178815
0.6735,0.00335753
0.67375,0.00908994
0.674,0.0142711
0.67425,0.0133274
0.6745,0.0136669
0.67475,0.00977321
0.675,-0.00423385
0.67525,-0.0219024
0.6755,-0.0379942
0.67575,-0.0610275
0.676,-0.086408
0.67625,-0.106516
0.6765,-0.128846
0.67675,-0.154154
0.677,-0.18144
0.67725,-0.192868
0.6775,-0.20916
0.67775,-0.215025
0.678,-0.21884
0.67825,-0.21172
0.6785,-0.190454
0.67875,-0.176451
0.679,-0.142628
0.67925,-0.112984
0.6795,-0.0790468
0.67975,-0.0438204
0.68,0.000804129
0.68025,0.0423328
0.6805,0.0869396
0.68075,0.123517
0.681,0.155031
0.68125,0.176772
0.6815,0.194587
0.68175,0.209353
0.682,0.214904
0.68225,0.213972
0.6825,0.215947
0.68275,0.194572
0.683,0.178923
0.68325,0.161801
0.6835,0.132911
0.68375,0.115048
0.684,0.0827815
0.68425,0.0650468
0.6845,0.0369948
0.68475,0.0284735
0.685,0.00588172
0.68525,0.000316009
0.6855,-0.00704394
0.68575,-0.0079954
0.686,-0.0133339
0.68625,-0.00586782
0.6865,-0.00409547
0.68675,0.00716213
0.687,0.00945942
0.68725,0.0189007
0.6875,0.0136245
0.68775,0.0182766
0.688,0.0119397
0.68825,0.00643807
0.6885,-0.00774597
0.68875,-0.0307307
0.689,-0.0439897
0.68925,-0.0760949
0.6895,-0.0925541
0.68975,-0.126236
0.69,-0.143878
0.69025,-0.16697
0.6905,-0.183845
0.69075,-0.19683
0.691,-0.208589
0.69125,-0.215823
0.6915,-0.206699
0.69175,-0.196808
0.692,-0.179525
0.69225,-0.155237
0.6925,-0.127485
0.69275,-0.0846114
0.693,-0.0540938
0.69325,-0.011395
0.6935,0.0312417
0.69375,0.0747099
0.694,0.10586
0.69425,0.146691
0.6945,0.167886
0.69475,0.196953
0.695,0.209138
0.69525,0.224226
0.6955,0.227008
0.69575,0.220851
0.696,0.208531
0.69625,0.186312
0.6965,0.174884
0.69675,0.147198
0.697,0.1192
0.69725,0.0974599
0.6975,0.0752628
0.69775,0.0518648
0.698,0.0314531
0.69825,0.0139453
0.6985,0.00394479
0.69875,-0.000812829
0.699,-0.00268845
0.69925,-0.00331791
0.6995,-0.00720017
0.69975,0.00357575
0.7,0.00355619
0.70025,0.013293
0.7005,0.0201596
0.70075,0.0185264
0.701,0.0178092
0.70125,0.019827
0.7015,0.00476832
0.70175,-0.00757391
0.702,-0.0224756
0.70225,-0.04077
0.7025,-0.0592261
0.70275,-0.0868912
0.703,-0.113895
0.70325,-0.136758
0.7035,-0.156974
0.70375,-0.183399
0.704,-0.194976
0.70425,-0.202959
0.7045,-0.212811
0.70475,-0.211489
0.705,-0.197129
0.70525,-0.179078
0.7055,-0.161761
0.70575,-0.131547
0.706,-0.0966188
0.70625,-0.0609537
0.7065,-0.0211237
0.70675,0.0235043
0.707,0.0582566
0.70725,0.0968411
0.7075,0.136037
0.70775,0.169122
0.708,0.192351
0.70825,0.205403
0.7085,0.216552
0.70875,0.228159
0.709,0.225781
0.70925,0.212251
0.7095,0.203849
0.70975,0.180958
0.71,0.154951
0.71025,0.130406
0.7105,0.110115
0.71075,0.0850927
0.711,0.0642245
0.71125,0.0428335
0.7115,0.022583
0.71175,0.00748053
0.712,-0.000552202
0.71225,-0.00675141
0.7125,-0.00114526
0.71275,-0.00295073
0.713,0.00352844
0.71325,0.00438309
0.7135,0.0116806
0.71375,0.012329
0.714,0.0186225
0.71425,0.0245524
0.7145,0.0229056
0.71475,0.00901263
0.715,0.00280456
0.71525,-0.0160456
0.7155,-0.0312972
0.71575,-0.0528051
0.716,-0.0719656
0.71625,-0.103867
0.7165,-0.12222
0.71675,-0.149422
0.717,-0.169268
0.71725,-0.189569
0.7175,-0.201415
0.71775,-0.20617
0.718,-0.20833
0.71825,-0.204133
0.7185,-0.18986
0.71875,-0.163261
0.719,-0.135839
0.71925,-0.104669
0.7195,-0.0747592
0.71975,-0.03608
0.72,0.00401863
0.72025,0.0468455
0.7205,0.0916046
0.72075,0.124763
0.721,0.162134
0.72125,0.182227
0.7215,0.204297
0.72175,0.219554
0.722,0.223229
0.72225,0.220138
0.7225,0.214844
0.72275,0.209706
0.723,0.185752
0.72325,0.163914
0.7235,0.145801
0.72375,0.116768
0.724,0.0970453
0.72425,0.0642561
0.7245,0.0478334
0.72475,0.0319213
0.725,0.00958383
0.72525,0.00233741
0.7255,-0.00173393
0.72575,-0.00333591
0.726,-0.00072833
0.72625,0.00347403
0.7265,0.000333694
0.72675,0.0130381
0.727,0.0114094
0.72725,0.0165657
0.7275,0.0174328
0.72775,0.0241176
0.728,0.0191554
0.72825,0.00227853
0.7285,-0.00833936
0.72875,-0.0243048
0.729,-0.0476832
0.72925,-0.0714321
0.7295,-0.0908383
0.72975,-0.113964
0.73,-0.143871
0.73025,-0.164357
0.7305,-0.185976
0.73075,-0.201244
0.731,-0.208765
0.73125,-0.207138
0.7315,-0.199704
0.73175,-0.189107
0.732,-0.174087
0.73225,-0.146053
0.7325,-0.115315
0.73275,-0.0855744
0.733,-0.0475578
0.73325,-0.00236091
0.7335,0.0348033
0.73375,0.0785539
0.734,0.108841
0.73425,0.146694
0.7345,0.172605
0.73475,0.193324
0.735,0.213949
0.73525,0.224911
0.7355,0.225378
0.73575,0.21943
0.736,0.207211
0.73625,0.191854
0.7365,0.169105
0.73675,0.154043
0.737,0.124686
0.73725,0.102002
0.7375,0.0761656
0.73775,0.0507408
0.738,0.0317579
0.73825,0.0195187
0.7385,0.0105711
0.73875,-0.00140789
0.739,-0.00181088
0.73925,-0.0031582
0.7395,0.00159501
0.73975,-0.00279448
0.74,0.0125055
0.74025,0.0178103
0.7405,0.0212393
0.74075,0.0190207
0.741,0.0222881
0.74125,0.0159051
0.7415,0.00795781
0.74175,0.00137504
0.742,-0.0154173
0.74225,-0.0352391
0.7425,-0.0582284
0.74275,-0.0893181
0.743,-0.112915
0.74325,-0.131825
0.7435,-0.159265
0.74375,-0.178297
0.744,-0.193967
0.74425,-0.200568
0.7445,-0.206522
0.74475,-0.211768
0.745,-0.197782
0.74525,-0.187208
0.7455,-0.161467
0.74575,-0.130864
0.746,-0.098298
0.74625,-0.0582262
0.7465,-0.0204441
0.74675,0.0215961
0.747,0.0595705
0.74725,0.0976119
0.7475,0.13452
0.74775,0.170587
0.748,0.185511
0.74825,0.21262
0.7485,0.221164
0.74875,0.223859
0.749,0.218225
0.74925,0.217429
0.7495,0.194209
0.74975,0.17607
0.75,0.152251
0.75025,0.135305
0.7505,0.105422
0.75075,0.0804339
0.751,0.0585565
0.75125,0.0435234
0.7515,0.0184012
0.75175,0.00896129
0.752,-0.0028184
0.75225,-0.00341419
0.7525,-0.00433736
0.75275,0.00010541
0.753,-0.0020454
0.75325,0.00882624
0.7535,0.0139478
0.75375,0.0158765
0.754,0.0201581
0.75425,0.023112
0.7545,0.0209859
0.75475,0.00611774
0.755,-0.0030231
0.75525,-0.0165861
0.7555,-0.0345751
0.75575,-0.0522034
0.756,-0.0806105
0.75625,-0.101476
0.7565,-0.125761
0.75675,-0.147042
0.757,-0.171996
0.75725,-0.189607
0.7575,-0.199561
0.75775,-0.213611
0.758,-0.214523
0.75825,-0.202683
0.7585,-0.191402
0.75875,-0.170953
0.759,-0.142869
0.75925,-0.11112
0.7595,-0.073307
0.75975,-0.0389564
0.76,0.00509464
0.76025,0.0428758
0.7605,0.0825217
0.76075,0.124231
0.761,0.1601
0.76125,0.179881
0.7615,0.201713
0.76175,0.218667
0.762,0.218104
0.76225,0.220747
0.7625,0.213874
0.76275,0.206918
0.763,0.186002
0.76325,0.162817
0.7635,0.138289
0.76375,0.118242
0.764,0.0943561
0.76425,0.0705056
0.7645,0.0449674
0.76475,0.0308669
0.765,0.0129772
0.76525,0.00150849
0.7655,-0.00302466
0.76575,-0.00727309
0.766,-0.00278673
0.76625,-0.00569093
0.7665,-0.00193016
0.76675,0.0101339
0.767,0.0115516
0.76725,0.0128779
0.7675,0.0164836
0.76775,0.019875
0.768,0.0111807
0.76825,0.00286131
0.7685,-0.00793962
0.76875,-0.0253021
0.769,-0.0509953
0.76925,-0.0678541
0.7695,-0.0985611
0.76975,-0.12409
0.77,-0.142825
0.77025,-0.163445
0.7705,-0.190119
0.77075,-0.198218
0.771,-0.213298
0.77125,-0.207772
0.7715,-0.206466
0.77175,-0.197352
0.772,-0.177658
0.77225,-0.156856
0.7725,-0.124023
0.77275,-0.0892873
0.773,-0.0465266
0.77325,-0.0123544
0.7735,0.034022
0.77375,0.0720578
0.774,0.105416
0.77425,0.142511
0.7745,0.168324
0.77475,0.191538
0.775,0.213542
0.77525,0.22175
0.7755,0.220703
0.77575,0.221611
0.776,0.205117
0.77625,0.19206
0.7765,0.1661
0.77675,0.147893
0.777,0.118288
0.77725,0.0939034
0.7775,0.0751278
0.77775,0.0552409
0.778,0.0295297
0.77825,0.0199219
0.7785,-0.000208583
0.77875,-0.003503
0.779,-0.00696
0.77925,-0.0116322
0.7795,-0.0029906
0.77975,0.00149928
0.78,0.00511315
0.78025,0.00748937
0.7805,0.0112052
0.78075,0.0203254
0.781,0.0210192
0.78125,0.0126232
0.7815,0.00380891
0.78175,-0.00380023
0.782,-0.0231956
0.78225,-0.0414427
0.7825,-0.0628168
0.78275,-0.0838804
0.783,-0.110379
0.78325,-0.135825
0.7835,-0.156849
0.78375,-0.180098
0.784,-0.194882
0.78425,-0.205603
0.7845,-0.211645
0.78475,-0.210402
0.785,-0.201014
0.78525,-0.188255
0.7855,-0.159904
0.78575,-0.132722
0.786,-0.100821
0.78625,-0.0672712
0.7865,-0.0264353
0.78675,0.0186927
0.787,0.0613392
0.78725,0.101491
0.7875,0.135712
0.78775,0.160227
0.788,0.191753
0.78825,0.203046
0.7885,0.213587
0.78875,0.218969
0.789,0.216421
0.78925,0.206695
0.7895,0.19518
0.78975,0.172338
0.79,0.151857
0.79025,0.132885
0.7905,0.103138
0.79075,0.0805277
0.791,0.0579831
0.79125,3.36E-02
0.7915,0.0222361
0.79175,0.00694694
0.792,0.00210195
0.79225,-0.0103852
0.7925,-0.0114351
0.79275,-0.00806525
0.793,-4.12E-05
0.79325,0.00619457
0.7935,0.00930105
0.79375,8.71E-03
0.794,0.019105
0.79425,0.0211875
0.7945,0.0193109
0.79475,0.00595536
0.795,0.00236461
0.79525,-0.0152172
0.7955,-0.0331268
0.79575,-0.0577933
0.796,-0.0807628
0.79625,-0.103173
0.7965,-0.12475
0.79675,-0.155484
0.797,-0.17295
0.79725,-0.187983
0.7975,-0.201341
0.79775,-0.211
0.798,-0.213966
0.79825,-0.202386
0.7985,-0.188471
0.79875,-0.167837
0.799,-0.145081
0.79925,-0.111875
0.7995,-0.0790862
0.79975,-0.0343219
0.8,0.00366147
0.80025,0.0475467
0.8005,0.0824758
0.80075,0.122614
0.801,0.152452
0.80125,0.184194
0.8015,0.197642
0.80175,0.214026
0.802,0.218427
0.80225,0.221806
0.8025,0.214479
0.80275,0.199788
0.803,0.182586
0.80325,0.162306
0.8035,0.137034
0.80375,0.111086
0.804,0.0865323
0.80425,0.0654136
0.8045,0.0410089
0.80475,0.0275976
0.805,0.00570866
0.80525,-0.000749777
0.8055,-0.00766718
0.80575,-0.00415126
0.806,-0.0110477
0.80625,8.69E-05
0.8065,0.00200368
0.80675,0.00638789
0.807,0.014313
0.80725,0.0158302
0.8075,0.0181696
0.80775,0.0148985
0.808,0.0125965
0.80825,0.00433003
0.8085,-0.0137887
0.80875,-0.0289168
0.809,-0.043825
0.80925,-0.0699599
0.8095,-0.092233
0.80975,-0.116575
0.81,-0.14856
0.81025,-0.171686
0.8105,-0.184435
0.81075,-0.20032
0.811,-0.208585
0.81125,-0.212367
0.8115,-0.20677
0.81175,-0.199464
0.812,-0.175251
0.81225,-0.152759
0.8125,-0.120572
0.81275,-0.0897031
0.813,-0.05492
0.81325,-0.0115794
0.8135,0.0308125
0.81375,0.0703766
0.814,0.112722
0.81425,0.140415
0.8145,0.167662
0.81475,0.195003
0.815,0.209335
0.81525,0.222001
0.8155,0.217075
0.81575,0.214435
0.816,0.207737
0.81625,0.192387
0.8165,0.171433
0.81675,0.14453
0.817,0.119648
0.81725,0.0974696
0.8175,0.0747539
0.81775,0.0489768
0.818,0.0266238
0.81825,0.0113705
0.8185,-0.000697157
0.81875,0.000192835
0.819,-0.00935297
0.81925,-0.0107914
0.8195,-0.00639647
0.81975,0.00187068
0.82,0.000586362
0.82025,0.0142608
0.8205,0.0166763
0.82075,0.0127785
0.821,0.0218115
0.82125,0.0160405
0.8215,0.00198109
0.82175,-0.00153006
0.822,-0.0189446
0.82225,-0.0372508
0.8225,-0.0634662
0.82275,-0.0845247
0.823,-0.114126
0.82325,-0.133568
0.8235,-0.158127
0.82375,-0.183926
0.824,-0.201915
0.82425,-0.204577
0.8245,-0.212571
0.82475,-0.213388
0.825,-0.204725
0.82525,-0.183833
0.8255,-0.16244
0.82575,-0.12957
0.826,-0.0996596
0.82625,-0.066677
0.8265,-0.0185968
0.82675,0.0146524
0.827,0.0555864
0.82725,0.0976837
0.8275,0.130929
0.82775,0.164504
0.828,0.183991
0.82825,0.208269
0.8285,0.215926
0.82875,0.219351
0.829,0.221827
0.82925,0.209406
0.8295,0.195046
0.82975,0.177212
0.83,0.153561
0.83025,0.133042
0.8305,0.103834
0.83075,0.0834478
0.831,0.061408
0.83125,0.037656
0.8315,0.0223898
0.83175,0.00499933
0.832,-0.00356985
0.83225,-0.0056736
0.8325,-0.00696722
0.83275,-0.0073778
0.833,0.000345334
0.83325,0.00406541
0.8335,0.00381944
0.83375,0.00912621
0.834,0.014213
0.83425,0.0129142
0.8345,0.0155485
0.83475,0.0131827
0.835,0.00174506
0.83525,-0.0177885
0.8355,-0.029887
0.83575,-0.054572
0.836,-0.0746133
0.83625,-0.103379
0.8365,-0.12493
0.83675,-0.151304
0.837,-0.179091
0.83725,-0.193907
0.8375,-0.200723
0.83775,-0.207032
0.838,-0.207895
0.83825,-0.202213
0.8385,-0.188916
0.83875,-0.173917
0.839,-0.14813
0.83925,-0.110466
0.8395,-0.0790372
0.83975,-0.0405374
0.84,0.00493103
0.84025,0.0482996
0.8405,0.0841661
0.84075,0.121395
0.841,0.153376
0.84125,0.18234
0.8415,0.199348
0.84175,0.216175
0.842,0.217384
0.84225,0.225488
0.8425,0.210361
0.84275,0.202339
0.843,0.187244
0.84325,0.167235
0.8435,0.14153
0.84375,0.11682
0.844,0.0930978
0.84425,0.0630147
0.8445,0.042876
0.84475,0.0241149
0.845,0.0146741
0.84525,-0.00240634
0.8455,-0.00937335
0.84575,-0.0074679
0.846,-0.0096688
0.84625,-0.00485365
0.8465,-0.00357914
0.84675,0.00503105
0.847,0.0162918
0.84725,0.0134407
0.8475,0.0138861
0.84775,0.0209945
0.848,0.0131375
0.84825,0.00275085
0.8485,-0.0110187
0.84875,-0.0273286
0.849,-0.0454352
0.84925,-0.0685805
0.8495,-0.0994098
0.84975,-0.116911
0.85,-0.148557
0.85025,-0.16692
0.8505,-0.183225
0.85075,-0.201556
0.851,-0.213362
0.85125,-0.207722
0.8515,-0.211652
0.85175,-0.2012
0.852,-0.183107
0.85225,-0.148996
0.8525,-0.121048
0.85275,-0.0835922
0.853,-0.0453233
0.85325,-0.0118664
0.8535,0.0293017
0.85375,0.0718016
0.854,0.108644
0.85425,0.140861
0.8545,0.174718
0.85475,0.197216
0.855,0.214803
0.85525,0.219384
0.8555,0.22168
0.85575,0.222101
0.856,0.208638
0.85625,0.191095
0.8565,0.171873
0.85675,1.45E-01
0.857,0.125321
0.85725,0.0929134
0.8575,0.0694694
0.85775,0.0466027
0.858,0.0339977
0.85825,0.015577
0.8585,0.00712612
0.85875,-0.0041768
0.859,-0.00640803
0.85925,-0.0117955
0.8595,-0.00758596
0.85975,-0.00274373
0.86,0.00595201
0.86025,0.00720855
0.8605,0.0111438
0.86075,0.0165192
0.861,0.0223651
0.86125,0.0170165
0.8615,0.00289319
0.86175,-0.0056391
0.862,-0.0184278
0.86225,-0.0423931
0.8625,-0.0676345
0.86275,-0.0853914
0.863,-0.108438
0.86325,-0.139457
0.8635,-0.164794
0.86375,-0.183828
0.864,-0.200896
0.86425,-0.208749
0.8645,-0.216756
0.86475,-0.214277
0.865,-0.198225
0.86525,-0.181971
0.8655,-0.160697
0.86575,-0.136991
0.866,-0.102833
0.86625,-0.0656973
0.8665,-0.021369
0.86675,0.0235087
0.867,0.0625626
0.86725,0.0930804
0.8675,0.131029
0.86775,0.160933
0.868,0.19123
0.86825,0.209824
0.8685,0.222239
0.86875,0.22076
0.869,0.221045
0.86925,0.212543
0.8695,0.198285
0.86975,0.174768
0.87,0.150738
0.87025,0.134196
0.8705,0.10355
0.87075,0.0855844
0.871,0.0565995
0.87125,0.0380514
0.8715,0.0239479
0.87175,0.00635381
0.872,0.0011337
0.87225,-0.00251309
0.8725,-0.00403887
0.87275,-0.00920372
0.873,-0.00500355
0.87325,0.000708592
0.8735,0.00770531
0.87375,0.0188125
0.874,0.0161382
0.87425,0.0229328
0.8745,0.0185445
0.87475,0.00455802
0.875,-0.00344204
0.87525,-0.015497
0.8755,-0.0286514
0.87575,-0.0570121
0.876,-0.0833065
0.87625,-0.104081
0.8765,-0.13128
0.87675,-0.151044
0.877,-0.174984
0.87725,-0.196389
0.8775,-0.204575
0.87775,-0.207447
0.878,-0.214358
0.87825,-0.208074
0.8785,-0.191478
0.87875,-0.171164
0.879,-0.147553
0.87925,-0.1105
0.8795,-0.0716447
0.87975,-0.0365052
0.88,0.00961686
0.88025,0.0426852
0.8805,0.0840041
0.88075,0.119787
0.881,0.155847
0.88125,0.176787
0.8815,0.197972
0.88175,0.219826
0.882,0.22519
0.88225,0.219296
0.8825,0.211873
0.88275,0.198427
0.883,0.187949
0.88325,0.162607
0.8835,0.143326
0.88375,0.114663
0.884,0.0922205
0.88425,0.0626758
0.8845,0.0408384
0.88475,0.0211286
0.885,0.00761088
0.88525,-0.0013169
0.8855,-0.00543803
0.88575,-0.0110919
0.886,-0.00712059
0.88625,-0.00170941
0.8865,0.00390058
0.88675,0.0101778
0.887,0.0145781
0.88725,0.0215397
0.8875,0.0151176
0.88775,0.0139405
0.888,0.014261
0.88825,-0.000396719
0.8885,-0.00928864
0.88875,-0.0273337
0.889,-0.0524681
0.88925,-0.0737746
0.8895,-0.0948298
0.88975,-0.124572
0.89,-0.145256
0.89025,-0.162461
0.8905,-0.183981
0.89075,-0.197427
0.891,-0.213896
0.89125,-0.212162
0.8915,-0.208896
0.89175,-0.198573
0.892,-0.181426
0.89225,-0.156802
0.8925,-0.126755
0.89275,-0.0855318
0.893,-0.0512223
0.89325,-0.00623084
0.8935,0.0322931
0.89375,0.0679237
0.894,0.109596
0.89425,0.144766
0.8945,0.169178
0.89475,0.190452
0.895,0.208071
0.89525,0.216907
0.8955,0.220529
0.89575,0.217936
0.896,0.208374
0.89625,0.186649
0.8965,0.171492
0.89675,0.150665
0.897,0.123373
0.89725,0.0955223
0.8975,0.0680198
0.89775,0.0471275
0.898,0.0311454
0.89825,0.017882
0.8985,0.001512
0.89875,-0.00803473
0.899,-0.00692527
0.89925,-0.0104651
0.8995,-0.000660107
0.89975,0.0038438
0.9,0.0060275
0.90025,0.0145393
0.9005,0.0190039
0.90075,0.0136126
0.901,0.020813
0.90125,0.00913623
0.9015,0.00219315
0.90175,-0.0093345
0.902,-0.0192542
0.90225,-0.0389741
0.9025,-0.0582229
0.90275,-0.0912699
0.903,-0.116494
0.90325,-0.134914
0.9035,-0.160854
0.90375,-0.176551
0.904,-0.194258
0.90425,-0.204019
0.9045,-0.216071
0.90475,-0.213276
0.905,-0.196988
0.90525,-0.180758
0.9055,-0.16177
0.90575,-0.129932
0.906,-0.0988948
0.90625,-0.0578766
0.9065,-0.0238684
0.90675,0.0156955
0.907,0.0561444
0.90725,0.0961793
0.9075,0.137055
0.90775,0.166917
0.908,0.188877
0.90825,0.210133
0.9085,0.220524
0.90875,0.223112
0.909,0.219312
0.90925,0.213716
0.9095,0.196857
0.90975,0.178524
0.91,0.159468
0.91025,0.127661
0.9105,0.106461
0.91075,0.0854521
0.911,0.0599954
0.91125,0.0393639
0.9115,0.018184
0.91175,0.00241702
0.912,0.00131514
0.91225,-0.00793396
0.9125,-0.0100213
0.91275,-0.00946439
0.913,-0.00349209
0.91325,-0.000683479
0.9135,0.00696921
0.91375,0.0166727
0.914,0.0177468
0.91425,0.0175989
0.9145,0.0193571
0.91475,0.00874652
0.915,0.000419171
0.91525,-0.0189039
0.9155,-0.0340689
0.91575,-0.0585334
0.916,-0.0838455
0.91625,-0.0998831
0.9165,-0.126286
0.91675,-0.15611
0.917,-0.177566
0.91725,-0.192136
0.9175,-0.207308
0.91775,-0.21276
0.918,-0.21007
0.91825,-0.202277
0.9185,-0.191517
0.91875,-0.170443
0.919,-0.14233
0.91925,-0.109854
0.9195,-0.0798085
0.91975,-0.0406523
0.92,0.0095851
0.92025,0.0476527
0.9205,0.0859547
0.92075,0.125969
0.921,0.151304
0.92125,0.183293
0.9215,0.200568
0.92175,0.21207
0.922,0.224077
0.92225,0.217281
0.9225,0.214155
0.92275,0.205166
0.923,0.179721
0.92325,0.160827
0.9235,0.143002
0.92375,0.11622
0.924,0.0886617
0.92425,0.0654354
0.9245,0.0470574
0.92475,0.0277372
0.925,0.00853548
0.92525,-0.00323073
0.9255,-0.00678092
0.92575,-0.00425481
0.926,-0.0102472
0.92625,-0.00472648
0.9265,0.0027691
0.92675,0.00489381
0.927,0.0102574
0.92725,0.0194347
0.9275,0.0206742
0.92775,0.0160243
0.928,0.00849938
0.92825,0.00258551
0.9285,-0.0114529
0.92875,-0.0255424
0.929,-0.0513148
0.92925,-0.072263
0.9295,-0.0949727
0.92975,-0.118484
0.93,-0.141247
0.93025,-0.169851
0.9305,-0.184857
0.93075,-0.19809
0.931,-0.211519
0.93125,-0.210505
0.9315,-0.205327
0.93175,-0.200565
0.932,-0.178963
0.93225,-0.149182
0.9325,-0.120513
0.93275,-0.0929715
0.933,-0.0489171
0.93325,-0.00824413
0.9335,0.0335544
0.93375,0.0724866
0.934,0.108997
0.93425,0.138672
0.9345,0.171284
0.93475,0.194193
0.935,0.213952
0.93525,0.219762
0.9355,0.220698
0.93575,0.214592
0.936,0.207599
0.93625,0.192904
0.9365,0.169119
0.93675,0.149279
0.937,0.117915
0.93725,0.0990544
0.9375,0.0698957
0.93775,0.0505522
0.938,0.0281794
0.93825,0.0140266
0.9385,0.00277898
0.93875,-0.00333315
0.939,-0.00788747
0.93925,-0.00434427
0.9395,-0.00221351
0.93975,0.00108214
0.94,0.00831086
0.94025,0.0100119
0.9405,0.0111507
0.94075,0.0144688
0.941,0.0202424
0.94125,0.00926734
0.9415,0.00219649
0.94175,-0.00306428
0.942,-0.0232768
0.94225,-0.0384825
0.9425,-0.0634286
0.94275,-0.0866814
0.943,-0.115381
0.94325,-0.141184
0.9435,-0.158716
0.94375,-0.181067
0.944,-0.192903
0.94425,-0.206986
0.9445,-0.217122
0.94475,-0.212543
0.945,-0.20099
0.94525,-0.181544
0.9455,-0.159799
0.94575,-0.13827
0.946,-0.0976971
0.94625,-0.060006
0.9465,-0.0184881
0.94675,0.0150069
0.947,0.0585132
0.94725,0.0956249
0.9475,0.129654
0.94775,0.165992
0.948,0.185305
0.94825,0.206335
0.9485,0.216126
0.94875,0.225879
0.949,0.223612
0.94925,0.208562
0.9495,0.192347
0.94975,0.182149
0.95,0.156989
0.95025,0.131258
0.9505,0.100628
0.95075,0.0813821
0.951,0.0560974
0.95125,0.0333219
0.9515,0.0252793
0.95175,0.0039025
0.952,-0.00324402
0.95225,-0.0112135
0.9525,-0.00398523
0.95275,-0.00734254
0.953,0.000456341
0.95325,-4.81E-05
0.9535,0.0103074
0.95375,0.015496
0.954,0.0219071
0.95425,0.0196586
0.9545,0.0119436
0.95475,0.0119028
0.955,0.00355115
0.95525,-0.019853
0.9555,-0.028802
0.95575,-0.0545801
0.956,-0.07889
0.95625,-0.107471
0.9565,-0.126581
0.95675,-0.156776
0.957,-0.178037
0.95725,-0.190097
0.9575,-0.207955
0.95775,-0.211713
0.958,-0.214572
0.95825,-0.201322
0.9585,-0.187973
0.95875,-0.16525
0.959,-0.14305
0.95925,-0.114915
0.9595,-0.0794346
0.95975,-0.0386074
0.96,0.00642631
0.96025,0.0423074
0.9605,0.0835397
0.96075,0.127866
0.961,0.151158
0.96125,0.18446
0.9615,0.198248
0.96175,0.217454
0.962,0.221309
0.96225,0.223549
0.9625,0.21185
0.96275,0.199133
0.963,0.184265
0.96325,0.163952
0.9635,0.142183
0.96375,0.120378
0.964,0.0884569
0.96425,0.0689975
0.9645,0.0506752
0.96475,0.0238578
0.965,0.0166162
0.96525,-0.0016729
0.9655,7.46E-05
0.96575,-0.00492481
0.966,-0.000166543
0.96625,-0.000996128
0.9665,0.00187374
0.96675,0.00932886
0.967,0.0179422
0.96725,0.0197625
0.9675,0.016311
0.96775,0.0222342
0.968,0.018085
0.96825,0.00528303
0.9685,-0.00571235
0.96875,-0.0252127
0.969,-0.0432351
0.96925,-0.0679112
0.9695,-0.0914794
0.96975,-0.11818
0.97,-0.14611
0.97025,-0.160695
0.9705,-0.183822
0.97075,-0.201377
0.971,-0.209871
0.97125,-0.207354
0.9715,-0.20676
0.97175,-0.192232
0.972,-0.172789
0.97225,-0.148025
0.9725,-0.114696
0.97275,-0.0831904
0.973,-0.0452068
0.97325,-0.00615935
0.9735,0.0355071
0.97375,0.0737872
0.974,0.117429
0.97425,0.148346
0.9745,0.181811
0.97475,0.197281
0.975,0.215795
0.97525,0.229051
0.9755,0.22765
0.97575,0.221632
0.976,0.213371
0.97625,0.197702
0.9765,0.17174
0.97675,0.156647
0.977,0.12777
0.97725,0.100843
0.9775,0.0839249
0.97775,0.0559765
0.978,0.0380982
0.97825,0.0231743
0.9785,0.00975251
0.97875,0.00166309
0.979,-0.000690136
0.97925,0.00289383
0.9795,0.00450545
0.97975,0.00605177
0.98,0.0137659
0.98025,0.014508
0.9805,0.0222927
0.98075,0.0255097
0.981,0.0232666
0.98125,0.0187579
0.9815,0.01378
0.98175,0.00593101
0.982,-0.0115019
0.98225,-0.0287922
0.9825,-0.0557885
0.98275,-0.0756568
0.983,-0.104851
0.98325,-0.130682
0.9835,-0.152626
0.98375,-0.174241
0.984,-0.190405
0.98425,-0.192079
0.9845,-0.198335
0.98475,-0.197006
0.985,-0.186621
0.98525,-0.178848
0.9855,-0.147042
0.98575,-0.126565
0.986,-0.0863095
0.98625,-0.0540137
0.9865,-0.0106975
0.98675,0.0283667
0.987,0.0719292
0.98725,0.112848
0.9875,0.15073
0.98775,0.175043
0.988,0.20343
0.98825,0.221886
0.9885,0.229962
0.98875,0.238789
0.989,0.238321
0.98925,0.227779
0.9895,0.210438
0.98975,0.19258
0.99,0.165325
0.99025,0.141339
0.9905,0.123829
0.99075,0.0919701
0.991,0.0740344
0.99125,0.0494326
0.9915,0.0359467
0.99175,0.0228572
0.992,0.0190208
0.99225,0.0124135
0.9925,0.007495
0.99275,0.0151241
0.993,0.0128413
0.99325,0.0256347
0.9935,0.0238294
0.99375,0.0350239
0.994,0.0408978
0.99425,0.0361873
0.9945,0.0378372
0.99475,0.0302602
0.995,0.0187972
0.99525,5.20E-05
0.9955,-0.00910667
0.99575,-0.0337612
0.996,-0.0532397
0.99625,-0.084825
0.9965,-0.109782
0.99675,-0.132552
0.997,-0.150997
0.99725,-0.170662
0.9975,-0.184515
0.99775,-0.182837
0.998,-0.188824
0.99825,-0.177692
0.9985,-0.16641
0.99875,-0.146303
0.999,-0.11885
0.99925,-0.0883909
0.9995,-0.0497285
0.99975,-0.0102434
1,0.0293895
1.00025,0.0718957
1.0005,0.111605
1.00075,0.146466
1.001,0.185423
1.00125,0.205569
1.0015,0.227066
1.00175,0.248404
1.002,0.254098
1.00225,0.249832
1.0025,0.246431
1.00275,0.235075
1.003,0.217234
1.00325,0.193832
1.0035,0.166866
1.00375,0.14762
1.004,0.120513
1.00425,0.101397
1.0045,0.0786534
1.00475,0.0614594
1.005,0.0451958
1.00525,0.0324995
1.0055,0.0254388
1.00575,0.0240874
1.006,0.0244404
1.00625,0.0275794
1.0065,0.0412517
1.00675,0.0479559
1.007,0.0491033
1.00725,0.0511867
1.0075,0.0601053
1.00775,0.0525452
1.008,0.0560995
1.00825,0.0432338
1.0085,0.026734
1.00875,0.0129451
1.009,-0.00625873
1.00925,-0.0242639
1.0095,-0.0532682
1.00975,-0.0772055
1.01,-0.098951
1.01025,-0.120329
1.0105,-0.141139
1.01075,-0.151249
1.011,-0.161741
1.01125,-0.16998
1.0115,-0.158491
1.01175,-0.151788
1.012,-0.126216
1.01225,-0.101386
1.0125,-0.0768718
1.01275,-0.0411044
1.013,-0.0030857
1.01325,0.0466251
1.0135,0.0836178
1.01375,0.123023
1.014,0.164223
1.01425,0.195973
1.0145,0.221955
1.01475,0.248378
1.015,0.265891
1.01525,0.275481
1.0155,0.27658
1.01575,0.276187
1.016,0.266877
1.01625,0.249641
1.0165,0.233214
1.01675,0.203613
1.017,0.185361
1.01725,0.161052
1.0175,0.131512
1.01775,0.110502
1.018,0.0931719
1.01825,0.0822039
1.0185,0.0636115
1.01875,0.0637208
1.019,0.0607979
1.01925,0.0554548
1.0195,0.055721
1.01975,0.0655689
1.02,0.0697947
1.02025,0.0775005
1.0205,0.0807234
1.02075,0.0870572
1.021,0.0874753
1.02125,0.084637
1.0215,0.0804083
1.02175,0.0715785
1.022,0.0499674
1.02225,0.0298153
1.0225,0.00815645
1.02275,-0.00944942
1.023,-0.0385546
1.02325,-0.0587957
1.0235,-0.0870793
1.02375,-0.100962
1.024,-0.114809
1.02425,-0.132183
1.0245,-0.136117
1.02475,-0.125148
1.025,-0.120589
1.02525,-0.105813
1.0255,-0.0768785
1.02575,-0.0460875
1.026,-0.0192266
1.02625,0.0205951
1.0265,0.0645839
1.02675,0.10177
1.027,0.144854
1.02725,0.185203
1.0275,0.221745
1.02775,0.253636
1.028,0.276434
1.02825,0.299694
1.0285,0.310231
1.02875,0.31334
1.029,0.313003
1.02925,0.30477
1.0295,0.290763
1.02975,0.27177
1.03,0.258044
1.03025,0.228023
1.0305,0.203344
1.03075,0.182218
1.031,0.158171
1.03125,0.141076
1.0315,0.124003
1.03175,0.1074
1.032,0.106794
1.03225,0.0965289
1.0325,0.098189
1.03275,0.0995124
1.033,0.105559
1.03325,0.117738
1.0335,0.118642
1.03375,0.121793
1.034,0.127078
1.03425,0.128689
1.0345,0.135474
1.03475,0.126839
1.035,0.114264
1.03525,0.105404
1.0355,0.0861476
1.03575,0.0692286
1.036,0.0392858
1.03625,0.0219886
1.0365,-0.00132377
1.03675,-0.0311088
1.037,-0.0437105
1.03725,-0.0668808
1.0375,-0.0722216
1.03775,-0.0822369
1.038,-0.0815713
1.03825,-0.0702985
1.0385,-0.0609011
1.03875,-0.0392498
1.039,-0.00546512
1.03925,0.0192532
1.0395,0.0571085
1.03975,0.100871
1.04,0.14685
1.04025,0.183084
1.0405,0.228015
1.04075,0.266192
1.041,0.293411
1.04125,0.328502
1.0415,0.349891
1.04175,0.358756
1.042,0.368388
1.04225,0.375122
1.0425,0.3671
1.04275,0.354649
1.043,0.341325
1.04325,0.319083
1.0435,0.295172
1.04375,0.266017
1.044,0.245493
1.04425,0.228853
1.0445,0.20176
1.04475,0.185567
1.045,0.17324
1.04525,0.164069
1.0455,0.163749
1.04575,0.154888
1.046,0.164748
1.04625,0.160636
1.0465,0.175301
1.04675,0.181872
1.047,0.18436
1.04725,0.193024
1.0475,0.190344
1.04775,0.192959
1.048,0.191886
1.04825,0.177211
1.0485,0.168679
1.04875,0.153202
1.049,0.139156
1.04925,0.117895
1.0495,0.0915042
1.04975,0.0654082
1.05,0.0384917
1.05025,0.0196884
1.0505,0.0087522
1.05075,-0.00657822
1.051,-0.0153351
1.05125,-0.0162995
1.0515,-0.0100841
1.05175,-0.00103231
1.052,0.0166683
1.05225,0.0422988
1.0525,0.0780149
1.05275,0.114543
1.053,0.151844
1.05325,0.20177
1.0535,0.235762
1.05375,0.282396
1.054,0.321125
1.05425,0.358993
1.0545,0.385213
1.05475,0.410065
1.055,0.427921
1.05525,0.440738
1.0555,0.442569
1.05575,0.433279
1.056,0.425293
1.05625,0.417324
1.0565,0.399455
1.05675,0.370119
1.057,0.347276
1.05725,0.323232
1.0575,0.308425
1.05775,0.284157
1.058,0.263721
1.05825,0.25469
1.0585,0.237349
1.05875,0.235868
1.059,0.235811
1.05925,0.233987
1.0595,0.238649
1.05975,0.241192
1.06,0.252676
1.06025,0.257423
1.0605,0.266506
1.06075,0.268562
1.061,0.274971
1.06125,0.267248
1.0615,0.257043
1.06175,0.246735
1.062,0.240402
1.06225,0.221188
1.0625,0.194206
1.06275,0.176618
1.063,0.153302
1.06325,0.124824
1.0635,0.112264
1.06375,0.090459
1.064,0.0778249
1.06425,0.067793
1.0645,0.0638512
1.06475,0.0686965
1.065,0.0764747
1.06525,0.0963189
1.0655,0.121974
1.06575,0.151515
1.066,0.187222
1.06625,0.227367
1.0665,0.26509
1.06675,0.313253
1.067,0.353026
1.06725,0.3938
1.0675,0.427267
1.06775,0.463993
1.068,0.48438
1.06825,0.503542
1.0685,0.523089
1.06875,0.522859
1.069,0.524606
1.06925,0.522106
1.0695,0.508196
1.06975,0.488632
1.07,0.461976
1.07025,0.444663
1.0705,0.41647
1.07075,0.392977
1.071,0.379498
1.07125,0.354712
1.0715,0.338278
1.07175,0.33007
1.072,0.327664
1.07225,0.321746
1.0725,0.316501
1.07275,0.329283
1.073,0.326235
1.07325,0.340773
1.0735,0.341466
1.07375,0.347331
1.074,0.356662
1.07425,0.361156
1.0745,0.359614
1.07475,0.357802
1.075,0.340701
1.07525,0.329822
1.0755,0.318778
1.07575,0.295334
1.076,0.277165
1.07625,0.253562
1.0765,0.224825
1.07675,0.20277
1.077,0.186213
1.07725,0.167585
1.0775,0.157737
1.07775,0.158687
1.078,0.155157
1.07825,0.169408
1.0785,0.183116
1.07875,0.20773
1.079,0.235702
1.07925,0.267426
1.0795,0.304067
1.07975,0.344557
1.08,0.382694
1.08025,0.434667
1.0805,0.470926
1.08075,0.511954
1.081,0.545137
1.08125,0.573247
1.0815,0.596864
1.08175,0.612765
1.082,0.613758
1.08225,0.616032
1.0825,0.619989
1.08275,0.60306
1.083,0.587243
1.08325,0.573669
1.0835,0.545604
1.08375,0.524389
1.084,0.49622
1.08425,0.481442
1.0845,0.458568
1.08475,0.442137
1.085,0.434437
1.08525,0.422518
1.0855,0.420744
1.08575,0.416164
1.086,0.422137
1.08625,0.427831
1.0865,0.430022
1.08675,0.442681
1.087,0.450651
1.08725,0.450681
1.0875,0.455286
1.08775,0.45873
1.088,0.457811
1.08825,0.44337
1.0885,0.431633
1.08875,0.423183
1.089,0.400954
1.08925,0.382096
1.0895,0.354455
1.08975,0.329274
1.09,0.307119
1.09025,0.287656
1.0905,0.273415
1.09075,0.260039
1.091,0.252692
1.09125,0.248898
1.0915,0.255879
1.09175,0.269194
1.092,0.294094
1.09225,0.314818
1.0925,0.346045
1.09275,0.386308
1.093,0.427669
1.09325,0.468635
1.0935,0.511223
1.09375,0.560031
1.094,0.596679
1.09425,0.628868
1.0945,0.658587
1.09475,0.688341
1.095,0.70252
1.09525,0.718646
1.0955,0.721717
1.09575,0.7169
1.096,0.708837
1.09625,0.691378
1.0965,0.675816
1.09675,0.653251
1.097,0.630866
1.09725,0.600963
1.0975,0.585066
1.09775,0.560655
1.098,0.548098
1.09825,0.531959
1.0985,0.517174
1.09875,0.517407
1.099,0.509119
1.09925,0.515718
1.0995,0.520859
1.09975,0.522027
1.1,0.530612
1.10025,0.538906
1.1005,0.549362
1.10075,0.551739
1.101,0.555879
1.10125,0.549936
1.1015,0.539524
1.10175,0.538011
1.102,0.518128
1.10225,0.506167
1.1025,0.482564
1.10275,0.462098
1.103,0.431599
1.10325,0.410594
1.1035,0.392557
1.10375,0.373299
1.104,0.360212
1.10425,0.343923
1.1045,0.3435
1.10475,0.349285
1.105,0.361446
1.10525,0.379057
1.1055,0.402436
1.10575,0.431197
1.106,0.47203
1.10625,0.502659
1.1065,0.55196
1.10675,0.595229
1.107,0.632012
1.10725,0.673783
1.1075,0.709956
1.10775,0.73887
1.108,0.76358
1.10825,0.790571
1.1085,0.796287
1.10875,0.80426
1.109,0.80577
1.10925,0.800819
1.1095,0.786433
1.10975,0.772504
1.11,0.745678
1.11025,0.728919
1.1105,0.704662
1.11075,0.677675
1.111,0.658099
1.11125,0.636994
1.1115,0.621474
1.11175,0.610539
1.112,0.601939
1.11225,0.600592
1.1125,0.600493
1.11275,0.599678
1.113,0.610966
1.11325,0.618498
1.1135,0.618748
1.11375,0.625081
1.114,0.635178
1.11425,0.63892
1.1145,0.635143
1.11475,0.624634
1.115,0.620236
1.11525,0.606616
1.1155,0.591089
1.11575,0.565147
1.116,0.54644
1.11625,0.527116
1.1165,0.495368
1.11675,0.478879
1.117,0.45875
1.11725,0.440823
1.1175,0.427076
1.11775,0.419381
1.118,0.425105
1.11825,0.427188
1.1185,0.450991
1.11875,0.465376
1.119,0.495124
1.11925,0.533548
1.1195,0.56306
1.11975,0.611908
1.12,0.654862
1.12025,0.688998
1.1205,0.730503
1.12075,0.766637
1.121,0.803489
1.12125,0.828526
1.1215,0.852846
1.12175,0.871565
1.122,0.878032
1.12225,0.879583
1.1225,0.867525
1.12275,0.861508
1.123,0.842078
1.12325,0.821537
1.1235,0.800267
1.12375,0.777145
1.124,0.753233
1.12425,0.727474
1.1245,0.707371
1.12475,0.688259
1.125,0.680892
1.12525,0.668927
1.1255,0.665093
1.12575,0.661833
1.126,0.657301
1.12625,0.663647
1.1265,0.669864
1.12675,0.675837
1.127,0.685505
1.12725,0.688889
1.1275,0.695857
1.12775,0.694324
1.128,0.687762
1.12825,0.676608
1.1285,0.663433
1.12875,0.65517
1.129,0.631876
1.12925,0.605306
1.1295,0.585831
1.12975,0.560428
1.13,0.535198
1.13025,0.514376
1.1305,0.501759
1.13075,0.4794
1.131,0.477266
1.13125,0.474237
1.1315,0.475344
1.13175,0.486688
1.132,0.512747
1.13225,0.531873
1.1325,0.560543
1.13275,0.605116
1.133,0.63742
1.13325,0.677271
1.1335,0.721925
1.13375,0.76193
1.134,0.797713
1.13425,0.83909
1.1345,0.8649
1.13475,0.883258
1.135,0.908478
1.13525,0.915081
1.1355,0.912411
1.13575,0.915025
1.136,0.897274
1.13625,0.88063
1.1365,0.864899
1.13675,0.846587
1.137,0.820902
1.13725,0.794749
1.1375,0.766785
1.13775,0.7461
1.138,0.724418
1.13825,0.708953
1.1385,0.695792
1.13875,0.696651
1.139,0.68594
1.13925,0.686647
1.1395,0.687601
1.13975,0.693499
1.14,0.704227
1.14025,0.712002
1.1405,0.715387
1.14075,0.713515
1.141,0.71518
1.14125,0.715859
1.1415,0.702142
1.14175,0.696332
1.142,0.674257
1.14225,0.654893
1.1425,0.635574
1.14275,0.608287
1.143,0.58694
1.14325,0.559866
1.1435,0.539152
1.14375,0.521551
1.144,0.496077
1.14425,0.486493
1.1445,0.484287
1.14475,0.484331
1.145,0.491192
1.14525,0.5091
1.1455,0.534459
1.14575,0.560806
1.146,0.59748
1.14625,0.633081
1.1465,0.668989
1.14675,0.714882
1.147,0.755474
1.14725,0.794325
1.1475,0.830221
1.14775,0.855792
1.148,0.877305
1.14825,0.893702
1.1485,0.910661
1.14875,0.911758
1.149,0.9114
1.14925,0.897817
1.1495,0.883605
1.14975,0.864521
1.15,0.840275
1.15025,0.818799
1.1505,0.79206
1.15075,0.767781
1.151,0.744149
1.15125,0.721932
1.1515,0.709835
1.15175,0.690123
1.152,0.682779
1.15225,0.671592
1.1525,0.669233
1.15275,0.675282
1.153,0.674807
1.15325,0.684667
1.1535,0.684632
1.15375,0.696573
1.154,0.692617
1.15425,0.691083
1.1545,0.690594
1.15475,0.681533
1.155,0.668998
1.15525,0.661819
1.1555,0.63943
1.15575,0.619054
1.156,0.590669
1.15625,0.566565
1.1565,0.543864
1.15675,0.510034
1.157,0.49115
1.15725,0.473334
1.1575,0.455656
1.15775,0.449769
1.158,0.454362
1.15825,0.459839
1.1585,0.464363
1.15875,0.48581
1.159,0.514832
1.15925,0.54953
1.1595,0.575744
1.15975,0.614375
1.16,0.655913
1.16025,0.70299
1.1605,0.732247
1.16075,0.769628
1.161,0.803433
1.16125,0.823136
1.1615,0.848942
1.16175,0.862554
1.162,0.864601
1.16225,0.865558
1.1625,0.853284
1.16275,0.842867
1.163,0.824013
1.16325,0.797192
1.1635,0.777973
1.16375,0.746805
1.164,0.716237
1.16425,0.690903
1.1645,0.669805
1.16475,0.652589
1.165,0.634511
1.16525,0.626637
1.1655,0.617206
1.16575,0.617678
1.166,0.616548
1.16625,0.610946
1.1665,0.61275
1.16675,0.618999
1.167,0.62112
1.16725,0.630997
1.1675,0.6306
1.16775,0.624262
1.168,0.622747
1.16825,0.607397
1.1685,0.595959
1.16875,0.573178
1.169,0.554031
1.16925,0.529341
1.1695,0.499715
1.16975,0.475933
1.17,0.442627
1.17025,0.419591
1.1705,0.405002
1.17075,0.385027
1.171,0.37748
1.17125,0.37136
1.1715,0.377121
1.17175,0.385213
1.172,0.402049
1.17225,0.421063
1.1725,0.447821
1.17275,0.48124
1.173,0.518476
1.17325,0.561497
1.1735,0.59918
1.17375,0.631938
1.174,0.671693
1.17425,0.701588
1.1745,0.732441
1.17475,0.746554
1.175,0.763997
1.17525,0.773023
1.1755,0.774345
1.17575,0.767468
1.176,0.747165
1.17625,0.728914
1.1765,0.713166
1.17675,0.680513
1.177,0.65832
1.17725,0.633406
1.1775,0.599543
1.17775,0.578998
1.178,0.56048
1.17825,0.537226
1.1785,0.525975
1.17875,0.517848
1.179,0.512137
1.17925,0.509187
1.1795,0.50811
1.17975,0.503433
1.18,0.513798
1.18025,0.509973
1.1805,0.511834
1.18075,0.518004
1.181,0.510601
1.18125,0.505965
1.1815,0.500588
1.18175,0.487115
1.182,0.469192
1.18225,0.44754
1.1825,0.422816
1.18275,0.396167
1.183,0.366267
1.18325,0.333269
1.1835,0.315973
1.18375,0.292623
1.184,0.265108
1.18425,0.260471
1.1845,0.247268
1.18475,0.245908
1.185,0.257706
1.18525,0.266345
1.1855,0.285677
1.18575,0.31263
1.186,0.340588
1.18625,0.376176
1.1865,0.417496
1.18675,0.450748
1.187,0.488498
1.18725,0.528145
1.1875,0.561814
1.18775,0.585856
1.188,0.612358
1.18825,0.631749
1.1885,0.63438
1.18875,0.632067
1.189,0.631422
1.18925,0.61718
1.1895,0.60469
1.18975,0.578074
1.19,0.555534
1.19025,0.532131
1.1905,0.495811
1.19075,0.470123
1.191,0.448863
1.19125,0.427959
1.1915,0.400994
1.19175,0.384277
1.192,0.37727
1.19225,0.36701
1.1925,0.358729
1.19275,0.366384
1.193,0.359808
1.19325,0.37012
1.1935,0.366376
1.19375,0.366293
1.194,0.372199
1.19425,0.369496
1.1945,0.360455
1.19475,0.353221
1.195,0.341147
1.19525,0.322254
1.1955,0.306463
1.19575,0.275706
1.196,0.253513
1.19625,0.218471
1.1965,0.19505
1.19675,0.164548
1.197,0.148158
1.19725,0.125426
1.1975,0.107973
1.19775,0.10232
1.198,0.0939772
1.19825,0.0985347
1.1985,0.110154
1.19875,0.129129
1.199,0.149299
1.19925,0.174337
1.1995,0.209267
1.19975,0.245637
1.2,0.290451
1.20025,0.323533
1.2005,0.356116
1.20075,0.397957
1.201,0.418122
1.20125,0.445035
1.2015,0.460226
1.20175,0.470957
1.202,0.480138
1.20225,0.47419
1.2025,0.461687
1.20275,0.4478
1.203,0.429181
1.20325,0.404521
1.2035,0.380122
1.20375,0.350785
1.204,0.31688
1.20425,0.290581
1.2045,0.264533
1.20475,0.246459
1.205,0.231524
1.20525,0.219737
1.2055,0.207289
1.20575,0.196334
1.206,0.201698
1.20625,0.199931
1.2065,0.201911
1.20675,0.200637
1.207,0.208224
1.20725,0.201932
1.2075,0.209313
1.20775,0.202497
1.208,0.194562
1.20825,0.175464
1.2085,0.162562
1.20875,0.144666
1.209,0.118674
1.20925,0.092055
1.2095,0.0624775
1.20975,0.0393931
1.21,0.00941084
1.21025,-0.0151338
1.2105,-0.0339747
1.21075,-0.0544845
1.211,-0.0672199
1.21125,-0.0763554
1.2115,-0.0696503
1.21175,-0.0679222
1.212,-0.0443004
1.21225,-0.0216345
1.2125,-0.00365172
1.21275,0.0357051
1.213,0.0711543
1.21325,0.100829
1.2135,0.142823
1.21375,0.177462
1.214,0.21326
1.21425,0.243731
1.2145,0.268108
1.21475,0.286748
1.215,0.300158
1.21525,0.308881
1.2155,0.303763
1.21575,0.296937
1.216,0.288977
1.21625,0.272427
1.2165,0.24649
1.21675,0.21768
1.217,0.186846
1.21725,0.165699
1.2175,0.131415
1.21775,0.113624
1.218,0.0896103
1.21825,0.0636334
1.2185,0.0564186
1.21875,0.0458009
1.219,0.0338269
1.21925,0.0296687
1.2195,0.0349173
1.21975,0.0356504
1.22,0.0408423
1.22025,0.039509
1.2205,0.0425402
1.22075,0.0422366
1.221,0.0410873
1.22125,0.0310716
1.2215,0.0226369
1.22175,0.00664407
1.222,-0.0139895
1.22225,-0.0363966
1.2225,-0.0630089
1.22275,-0.091796
1.223,-0.120186
1.22325,-0.146022
1.2235,-0.169781
1.22375,-0.189614
1.224,-0.21324
1.22425,-0.22982
1.2245,-0.236238
1.22475,-0.229728
1.225,-0.231129
1.22525,-0.214524
1.2255,-0.195607
1.22575,-0.165871
1.226,-0.136963
1.22625,-0.101537
1.2265,-0.0663526
1.22675,-0.0329598
1.227,0.0143476
1.22725,0.0411343
1.2275,0.0747561
1.22775,0.104814
1.228,0.123907
1.22825,0.138247
1.2285,0.153958
1.22875,0.157597
1.229,0.145461
1.22925,0.135854
1.2295,0.122368
1.22975,0.101635
1.23,0.0755776
1.23025,0.0468472
1.2305,0.0141667
1.23075,-0.0142978
1.231,-0.0332833
1.23125,-0.0626309
1.2315,-0.0784327
1.23175,-0.0903104
1.232,-0.104369
1.23225,-0.117499
1.2325,-0.114357
1.23275,-0.120295
1.233,-0.112301
1.23325,-0.111654
1.2335,-0.113345
1.23375,-0.106246
1.234,-0.104709
1.23425,-0.108186
1.2345,-0.11394
1.23475,-0.119486
1.235,-0.129256
1.23525,-0.146789
1.2355,-0.172965
1.23575,-0.197859
1.236,-0.220664
1.23625,-0.244243
1.2365,-0.277467
1.23675,-0.297373
1.237,-0.324082
1.23725,-0.34541
1.2375,-0.356302
1.23775,-0.373809
1.238,-0.370205
1.23825,-0.36668
1.2385,-0.359402
1.23875,-0.336213
1.239,-0.314553
1.23925,-0.281457
1.2395,-0.24644
1.23975,-0.214233
1.24,-0.168674
1.24025,-0.135216
1.2405,-0.101282
1.24075,-0.0578278
1.241,-0.0373304
1.24125,-0.00445096
1.2415,0.0124026
1.24175,0.0200854
1.242,0.0240522
1.24225,0.0243377
1.2425,0.0184456
1.24275,2.52E-05
1.243,-0.0191654
1.24325,-0.0390834
1.2435,-0.0666667
1.24375,-0.0901595
1.244,-0.120272
1.24425,-0.151168
1.2445,-0.173714
1.24475,-0.18923
1.245,-0.206991
1.24525,-0.21573
1.2455,-0.222059
1.24575,-0.233441
1.246,-0.229337
1.24625,-0.228853
1.2465,-0.226625
1.24675,-0.223259
1.247,-0.22306
1.24725,-0.21467
1.2475,-0.211721
1.24775,-0.217252
1.248,-0.225126
1.24825,-0.235347
1.2485,-0.251999
1.24875,-0.267885
1.249,-0.292878
1.24925,-0.3154
1.2495,-0.338736
1.24975,-0.369577
1.25,-0.399659
1.25025,-0.419086
1.2505,-0.440236
1.25075,-0.456398
1.251,-0.462192
1.25125,-0.47065
1.2515,-0.462184
1.25175,-0.459282
1.252,-0.435671
1.25225,-0.416014
1.2525,-0.38947
1.25275,-0.355906
1.253,-0.313185
1.25325,-0.276497
1.2535,-0.23985
1.25375,-0.193678
1.254,-0.160374
1.25425,-0.132642
1.2545,-0.0992039
1.25475,-0.0753239
1.255,-0.0664081
1.25525,-0.0563798
1.2555,-0.0555882
1.25575,-0.0605539
1.256,-0.074475
1.25625,-0.0858048
1.2565,-0.111825
1.25675,-0.13866
1.257,-0.16594
1.25725,-0.185273
1.2575,-0.214389
1.25775,-0.234426
1.258,-0.257001
1.25825,-0.275717
1.2585,-0.282168
1.25875,-0.291026
1.259,-0.294166
1.25925,-0.296545
1.2595,-0.296632
1.25975,-0.298099
1.26,-0.292428
1.26025,-0.281647
1.2605,-0.283658
1.26075,-0.274501
1.261,-0.278514
1.26125,-0.286351
1.2615,-0.288398
1.26175,-0.301071
1.262,-0.322809
1.26225,-0.344416
1.2625,-0.360963
1.26275,-0.383156
1.263,-0.414052
1.26325,-0.43476
1.2635,-0.46626
1.26375,-0.480501
1.264,-0.500138
1.26425,-0.509917
1.2645,-0.514933
1.26475,-0.514979
1.265,-0.508225
1.26525,-0.487616
1.2655,-0.470224
1.26575,-0.438621
1.266,-0.407663
1.26625,-0.372239
1.2665,-0.323962
1.26675,-0.283713
1.267,-0.250897
1.26725,-0.205523
1.2675,-0.171862
1.26775,-0.14032
1.268,-0.119564
1.26825,-0.105303
1.2685,-0.0887857
1.26875,-0.0872336
1.269,-0.0880691
1.26925,-0.0927849
1.2695,-0.113578
1.26975,-0.126942
1.27,-0.156778
1.27025,-0.180592
1.2705,-0.202319
1.27075,-0.221989
1.271,-0.252322
1.27125,-0.275001
1.2715,-0.287595
1.27175,-0.304824
1.272,-0.306581
1.27225,-0.311758
1.2725,-0.310289
1.27275,-0.308413
1.273,-0.309887
1.27325,-0.29907
1.2735,-0.297393
1.27375,-0.290418
1.274,-0.288443
1.27425,-0.288387
1.2745,-0.286784
1.27475,-0.29983
1.275,-0.303714
1.27525,-0.318277
1.2755,-0.332949
1.27575,-0.361906
1.276,-0.380171
1.27625,-0.410803
1.2765,-0.429315
1.27675,-0.45042
1.277,-0.471668
1.27725,-0.496499
1.2775,-0.508307
1.27775,-0.511005
1.278,-0.506444
1.27825,-0.501967
1.2785,-0.49291
1.27875,-0.469347
1.279,-0.442018
1.27925,-0.407036
1.2795,-0.369041
1.27975,-0.328352
1.28,-0.285028
1.28025,-0.245605
1.2805,-0.207956
1.28075,-0.174494
1.281,-0.137586
1.28125,-0.114105
1.2815,-0.0905991
1.28175,-0.0697583
1.282,-0.0680045
1.28225,-0.0635949
1.2825,-0.0675236
1.28275,-0.0818582
1.283,-0.0991424
1.28325,-0.116663
1.2835,-0.148175
1.28375,-0.171599
1.284,-0.187936
1.28425,-0.212233
1.2845,-0.238348
1.28475,-0.255709
1.285,-0.261128
1.28525,-0.273003
1.2855,-0.275548
1.28575,-0.285042
1.286,-0.278727
1.28625,-0.275266
1.2865,-0.272164
1.28675,-0.261004
1.287,-0.257598
1.28725,-0.247268
1.2875,-0.249916
1.28775,-0.245647
1.288,-0.252874
1.28825,-0.262849
1.2885,-0.269207
1.28875,-0.286151
1.289,-0.307935
1.28925,-0.32679
1.2895,-0.35637
1.28975,-0.372827
1.29,-0.400948
1.29025,-0.420225
1.2905,-0.433626
1.29075,-0.449917
1.291,-0.463524
1.29125,-0.456643
1.2915,-0.458952
1.29175,-0.443418
1.292,-0.425536
1.29225,-0.395395
1.2925,-0.368926
1.29275,-0.329823
1.293,-0.288047
1.29325,-0.247495
1.2935,-0.20578
1.29375,-0.165486
1.294,-0.125125
1.29425,-0.0910578
1.2945,-0.0588583
1.29475,-0.0287055
1.295,-0.0189203
1.29525,-0.0102902
1.2955,-0.00597941
1.29575,-0.0101739
1.296,-0.0144555
1.29625,-0.0302382
1.2965,-0.049369
1.29675,-0.071545
1.297,-0.0910687
1.29725,-0.118861
1.2975,-0.143276
1.29775,-0.164256
1.298,-0.175108
1.29825,-0.190618
1.2985,-0.202875
1.29875,-0.212398
1.299,-0.205382
1.29925,-0.206499
1.2995,-0.199788
1.29975,-0.199489
1.3,-0.188072
1.30025,-0.187817
1.3005,-0.179144
1.30075,-0.171073
1.301,-0.174944
1.30125,-0.170166
1.3015,-0.177299
1.30175,-0.192608
1.302,-0.200969
1.30225,-0.22446
1.3025,-0.245691
1.30275,-0.267347
1.303,-0.285768
1.30325,-0.308291
1.3035,-0.335714
1.30375,-0.350129
1.304,-0.362711
1.30425,-0.375078
1.3045,-0.37683
1.30475,-0.370892
1.305,-0.363079
1.30525,-0.349194
1.3055,-0.322995
1.30575,-0.295069
1.306,-0.258585
1.30625,-0.216174
1.3065,-0.171261
1.30675,-0.126116
1.307,-0.0884853
1.30725,-0.0508891
1.3075,-0.0141777
1.30775,0.0243195
1.308,0.0511874
1.30825,0.0690568
1.3085,0.082757
1.30875,0.0881482
1.309,0.0844398
1.30925,0.0762416
1.3095,0.0651787
1.30975,0.045622
1.31,0.0246817
1.31025,0.00509855
1.3105,-0.0126521
1.31075,-0.0437927
1.311,-0.0623334
1.31125,-0.0769222
1.3115,-0.0942197
1.31175,-0.103719
1.312,-0.114108
1.31225,-0.113601
1.3125,-0.117631
1.31275,-0.110661
1.313,-0.10562
1.31325,-0.0986665
1.3135,-0.0918185
1.31375,-0.0800959
1.314,-0.0752754
1.31425,-0.0714018
1.3145,-0.0797645
1.31475,-0.0801832
1.315,-0.0938237
1.31525,-0.10124
1.3155,-0.114794
1.31575,-0.141824
1.316,-0.158274
1.31625,-0.183357
1.3165,-0.204294
1.31675,-0.223467
1.317,-0.249179
1.31725,-0.25877
1.3175,-0.273493
1.31775,-0.277076
1.318,-0.281437
1.31825,-0.263896
1.3185,-0.25385
1.31875,-0.227965
1.319,-0.197274
1.31925,-0.173158
1.3195,-0.13226
1.31975,-0.0863589
1.32,-0.0500996
1.32025,-0.00105962
1.3205,0.0395833
1.32075,0.077604
1.321,0.111187
1.32125,0.144135
1.3215,0.158269
1.32175,0.179081
1.322,0.18758
1.32225,0.188536
1.3225,0.181179
1.32275,0.166767
1.323,0.159259
1.32325,0.135937
1.3235,0.109645
1.32375,0.0941459
1.324,0.0629157
1.32425,0.0467834
1.3245,0.0219876
1.32475,0.00497639
1.325,-0.00187933
1.32525,-0.0127524
1.3255,-0.0192061
1.32575,-0.0206629
1.326,-0.0184163
1.32625,-0.0099533
1.3265,-0.00393037
1.32675,0.0063454
1.327,0.0119219
1.32725,0.0205583
1.3275,0.0198413
1.32775,0.0177436
1.328,0.0178836
1.32825,0.0115065
1.3285,-0.00246977
1.32875,-0.0187968
1.329,-0.0343112
1.32925,-0.0589577
1.3295,-0.0779515
1.32975,-0.100021
1.33,-0.120685
1.33025,-0.140658
1.3305,-0.165617
1.33075,-0.173117
1.331,-0.185554
1.33125,-0.186854
1.3315,-0.178789
1.33175,-0.163291
1.332,-0.143623
1.33225,-0.116703
1.3325,-0.0837554
1.33275,-0.0453299
1.333,-0.00590125
1.33325,0.0369498
1.3335,0.0731595
1.33375,0.119753
1.334,0.160181
1.33425,0.190666
1.3345,0.219426
1.33475,0.244717
1.335,0.261385
1.33525,0.275937
1.3355,0.282687
1.33575,0.278177
1.336,0.26817
1.33625,0.249417
1.3365,0.232042
1.33675,0.214214
1.337,0.18392
1.33725,0.16055
1.3375,0.143773
1.33775,0.122674
1.338,0.102453
1.33825,0.0826999
1.3385,0.0787345
1.33875,0.0667012
1.339,0.0730896
1.33925,0.0738645
1.3395,0.0755446
1.33975,0.0827373
1.34,0.0865113
1.34025,0.0936743
1.3405,0.0995698
1.34075,0.100595
1.341,0.106738
1.34125,0.103955
1.3415,0.0912046
1.34175,0.0852738
1.342,0.0688481
1.34225,0.0537126
1.3425,0.0286758
1.34275,0.0118763
1.343,-0.0147397
1.34325,-0.0410767
1.3435,-0.0631403
1.34375,-0.084131
1.344,-0.0986879
1.34425,-0.106127
1.3445,-0.10681
1.34475,-0.102361
1.345,-0.0979038
1.34525,-0.0801421
1.3455,-0.0544041
1.34575,-0.0269486
1.346,0.014959
1.34625,0.0464527
1.3465,0.0942431
1.34675,0.137955
1.347,0.171265
1.34725,0.210979
1.3475,0.248233
1.34775,0.280908
1.348,0.307449
1.34825,0.328179
1.3485,0.338118
1.34875,0.345203
1.349,0.34677
1.34925,0.33061
1.3495,0.322794
1.34975,0.302301
1.35,0.280886
1.35025,0.258019
1.3505,0.230251
1.35075,0.208245
1.351,0.18827
1.35125,0.172344
1.3515,0.155027
1.35175,0.14013
1.352,0.12865
1.35225,0.128452
1.3525,0.126562
1.35275,0.135086
1.353,0.136993
1.35325,0.144422
1.3535,0.150106
1.35375,0.157063
1.354,0.162181
1.35425,0.1607
1.3545,0.158957
1.35475,0.148962
1.355,0.13753
1.35525,0.123896
1.3555,0.115191
1.35575,0.0933634
1.356,0.0694166
1.35625,0.0416816
1.3565,0.0168743
1.35675,-0.00558789
1.357,-0.0278997
1.35725,-0.0408747
1.3575,-0.0501483
1.35775,-0.0653435
1.358,-0.0639761
1.35825,-0.0486109
1.3585,-0.0408392
1.35875,-0.0211103
1.359,0.0127304
1.35925,0.0402411
1.3595,0.0812584
1.35975,0.115822
1.36,0.163654
1.36025,0.205537
1.3605,0.239156
1.36075,0.277981
1.361,0.312128
1.36125,0.339567
1.3615,0.361145
1.36175,0.368136
1.362,0.383813
1.36225,0.376286
1.3625,0.370927
1.36275,0.359041
1.363,0.347718
1.36325,0.318405
1.3635,0.294649
1.36375,0.274037
1.364,0.246903
1.36425,0.224903
1.3645,0.203288
1.36475,0.188643
1.365,0.169491
1.36525,0.161356
1.3655,0.158219
1.36575,0.149882
1.366,0.153581
1.36625,0.157276
1.3665,0.159154
1.36675,0.164875
1.367,0.16993
1.36725,0.179
1.3675,0.177921
1.36775,0.183527
1.368,0.175676
1.36825,0.169899
1.3685,0.15111
1.36875,0.134878
1.369,0.118593
1.36925,0.0904634
1.3695,0.0664896
1.36975,0.0401862
1.37,0.0155557
1.37025,-0.00446448
1.3705,-0.0272952
1.37075,-0.0392166
1.371,-0.0466661
1.37125,-0.0488102
1.3715,-0.042512
1.37175,-0.0305142
1.372,-0.0111578
1.37225,0.0130689
1.3725,0.0357979
1.37275,0.0724315
1.373,0.114631
1.37325,0.150307
1.3735,0.192912
1.37375,0.232756
1.374,0.275481
1.37425,0.300998
1.3745,0.331761
1.37475,0.350747
1.375,0.374941
1.37525,0.374988
1.3755,0.383201
1.37575,0.374066
1.376,0.367127
1.37625,0.353667
1.3765,0.331256
1.37675,0.306579
1.377,0.276034
1.37725,0.25856
1.3775,0.23196
1.37775,0.205198
1.378,0.182944
1.37825,0.170587
1.3785,0.160075
1.37875,0.147089
1.379,0.144862
1.37925,0.15109
1.3795,0.150565
1.37975,0.153729
1.38,0.161647
1.38025,0.159963
1.3805,0.170615
1.38075,0.17424
1.381,0.168074
1.38125,0.163636
1.3815,0.160597
1.38175,0.147563
1.382,0.125806
1.38225,0.103692
1.3825,0.0814849
1.38275,0.0622044
1.383,0.0384343
1.38325,0.00502927
1.3835,-0.0179758
1.38375,-0.0364545
1.384,-0.0516032
1.38425,-0.0655877
1.3845,-0.0644356
1.38475,-0.0710222
1.385,-0.0626864
1.38525,-0.0387349
1.3855,-0.0234286
1.38575,0.00575241
1.386,0.0407883
1.38625,0.0738914
1.3865,0.111873
1.38675,0.156738
1.387,0.201076
1.38725,0.230922
1.3875,0.268291
1.38775,0.298442
1.388,0.325602
1.38825,0.344827
1.3885,0.348161
1.38875,0.352967
1.389,0.353774
1.38925,0.340256
1.3895,0.324265
1.38975,0.302917
1.39,0.280424
1.39025,0.254352
1.3905,0.227763
1.39075,0.209074
1.391,0.178892
1.39125,0.159105
1.3915,0.146058
1.39175,0.13171
1.392,0.117608
1.39225,0.115926
1.3925,0.113019
1.39275,0.111297
1.393,0.112319
1.39325,0.12281
1.3935,0.129674
1.39375,0.126645
1.394,0.131113
1.39425,0.13411
1.3945,0.132124
1.39475,0.12034
1.395,0.113509
1.39525,0.0964371
1.3955,0.0778229
1.39575,0.0506425
1.396,0.0293258
1.39625,0.00184919
1.3965,-0.0213547
1.39675,-0.0470813
1.397,-0.0679005
1.39725,-0.0834498
1.3975,-0.10438
1.39775,-0.112767
1.398,-0.110703
1.39825,-0.107073
1.3985,-0.0972118
1.39875,-0.0772525
1.399,-0.0468737
1.39925,-0.0159761
1.3995,0.0176279
1.39975,0.0586295
1.4,0.102909
1.40025,0.135425
1.4005,0.178271
1.40075,0.211009
1.401,0.243556
1.40125,0.265701
1.4015,0.283459
1.40175,0.29907
1.402,0.306619
1.40225,0.306579
1.4025,0.301466
1.40275,0.280366
1.403,0.261373
1.40325,0.245856
1.4035,0.218295
1.40375,0.190933
1.404,0.164105
1.40425,0.139186
1.4045,0.120684
1.40475,0.0998728
1.405,0.0799527
1.40525,0.0773307
1.4055,0.0657514
1.40575,0.0635032
1.406,0.0570086
1.40625,0.0604821
1.4065,0.0671891
1.40675,0.0776816
1.407,0.0774275
1.40725,0.0820347
1.4075,0.0848735
1.40775,0.0755668
1.408,0.0682802
1.40825,0.0639459
1.4085,0.0463483
1.40875,0.0273977
1.409,0.0133475
1.40925,-0.0194505
1.4095,-0.0370378
1.40975,-0.0645623
1.41,-0.0917285
1.41025,-0.120667
1.4105,-0.140763
1.41075,-0.155834
1.411,-0.160867
1.41125,-0.163291
1.4115,-0.16639
1.41175,-0.152506
1.412,-0.136307
1.41225,-0.107829
1.4125,-0.0858229
1.41275,-0.0433857
1.413,-0.0121395
1.41325,0.0299257
1.4135,0.066272
1.41375,0.1145
1.414,0.143922
1.41425,0.183773
1.4145,0.206397
1.41475,0.232777
1.415,0.247616
1.41525,0.250927
1.4155,0.251666
1.41575,0.250451
1.416,0.23884
1.41625,0.21561
1.4165,0.193027
1.41675,0.17496
1.417,0.143592
1.41725,0.119422
1.4175,0.089742
1.41775,0.0667004
1.418,0.0552668
1.41825,0.0313743
1.4185,0.019081
1.41875,0.00800097
1.419,0.0109361
1.41925,0.0108967
1.4195,0.0082879
1.41975,0.00944596
1.42,0.0203562
1.42025,0.0227881
1.4205,0.0288773
1.42075,0.0317432
1.421,0.0287632
1.42125,0.0246269
1.4215,0.0110338
1.42175,-0.00111416
1.422,-0.01347
1.42225,-0.0328248
1.4225,-0.0651845
1.42275,-0.0895973
1.423,-0.108075
1.42325,-0.140185
1.4235,-0.163637
1.42375,-0.179596
1.424,-0.197752
1.42425,-0.215006
1.4245,-0.212865
1.42475,-0.211736
1.425,-0.20502
1.42525,-0.196318
1.4255,-0.172498
1.42575,-0.142221
1.426,-0.11479
1.42625,-0.0745136
1.4265,-0.0393544
1.42675,0.00434264
1.427,0.0467985
1.42725,0.0792346
1.4275,0.1134
1.42775,0.144302
1.428,0.171698
1.42825,0.191283
1.4285,0.197735
1.42875,0.200262
1.429,0.196465
1.42925,0.185316
1.4295,0.170425
1.42975,0.15286
1.43,0.132026
1.43025,0.103454
1.4305,0.0800456
1.43075,0.0527697
1.431,0.0285801
1.43125,0.00513919
1.4315,-0.00538562
1.43175,-0.0220481
1.432,-0.0367959
1.43225,-0.0384871
1.4325,-0.0425545
1.43275,-0.0356656
1.433,-0.0352365
1.43325,-0.0312112
1.4335,-0.0281138
1.43375,-0.0244457
1.434,-0.021527
1.43425,-0.0229397
1.4345,-0.0216491
1.43475,-0.027182
1.435,-0.0386338
1.43525,-0.0533106
1.4355,-0.0780877
1.43575,-0.100147
1.436,-0.120572
1.43625,-0.145571
1.4365,-0.17324
1.43675,-0.201676
1.437,-0.219719
1.43725,-0.235885
1.4375,-0.252173
1.43775,-0.253948
1.438,-0.255242
1.43825,-0.257127
1.4385,-0.237966
1.43875,-0.220049
1.439,-0.196239
1.43925,-0.163067
1.4395,-0.127572
1.43975,-0.0861564
1.44,-0.0444384
1.44025,-0.00990951
1.4405,0.0302073
1.44075,0.0666648
1.441,0.100311
1.44125,0.123315
1.4415,0.149633
1.44175,0.153063
1.442,0.164437
1.44225,0.15848
1.4425,0.154234
1.44275,0.141029
1.443,0.126769
1.44325,0.100993
1.4435,0.0814617
1.44375,0.0479342
1.444,0.0245459
1.44425,-0.00160012
1.4445,-0.0225475
1.44475,-3.63E-02
1.445,-0.0531594
1.44525,-0.0616511
1.4455,-0.0667426
1.44575,-0.0764658
1.446,-0.0722169
1.44625,-0.0693804
1.4465,-0.069639
1.44675,-0.0556003
1.447,-0.0568475
1.44725,-0.0527487
1.4475,-0.0515129
1.44775,-0.0482408
1.448,-0.0530658
1.44825,-0.0633886
1.4485,-0.0800139
1.44875,-0.0955226
1.449,-0.113705
1.44925,-0.143978
1.4495,-0.165904
1.44975,-0.190339
1.45,-0.22067
1.45025,-0.238246
1.4505,-0.25803
1.45075,-0.271335
1.451,-0.283234
1.45125,-0.282054
1.4515,-0.282347
1.45175,-0.274408
1.452,-0.251331
1.45225,-0.223514
1.4525,-0.192641
1.45275,-0.163308
1.453,-0.120057
1.45325,-0.0863485
1.4535,-0.0439592
1.45375,0.00173075
1.454,0.031622
1.45425,0.0673078
1.4545,0.0996963
1.45475,0.119771
1.455,0.135638
1.45525,0.146621
1.4555,0.147964
1.45575,0.140496
1.456,0.126722
1.45625,0.116543
1.4565,0.0943892
1.45675,0.0734937
1.457,0.0477418
1.45725,0.0154938
1.4575,-0.00481075
1.45775,-0.0227469
1.458,-0.0432134
1.45825,-0.0676177
1.4585,-0.0785329
1.45875,-0.085947
1.459,-0.082938
1.45925,-0.0823867
1.4595,-0.0884431
1.45975,-0.0788657
1.46,-0.0758618
1.46025,-0.0689934
1.4605,-0.0646004
1.46075,-0.0633913
1.461,-0.0632386
1.46125,-0.0668597
1.4615,-0.0692025
1.46175,-0.0866153
1.462,-0.105236
1.46225,-0.120306
1.4625,-0.138482
1.46275,-0.165542
1.463,-0.194048
1.46325,-0.218404
1.4635,-0.235097
1.46375,-0.262376
1.464,-0.280084
1.46425,-0.284991
1.4645,-0.292507
1.46475,-0.286016
1.465,-0.276827
1.46525,-0.265937
1.4655,-0.239352
1.46575,-0.216395
1.466,-0.177132
1.46625,-0.139763
1.4665,-0.104579
1.46675,-0.0552322
1.467,-0.0149229
1.46725,0.0228846
1.4675,0.0510044
1.46775,0.0887134
1.468,0.105912
1.46825,0.13097
1.4685,0.140966
1.46875,0.148736
1.469,0.142066
1.46925,0.138387
1.4695,0.119607
1.46975,0.104195
1.47,0.081699
1.47025,0.0532711
1.4705,0.0298567
1.47075,0.000145775
1.471,-0.0135215
1.47125,-0.0410708
1.4715,-0.0542837
1.47175,-0.0689841
1.472,-0.0814859
1.47225,-0.0796238
1.4725,-0.0849196
1.47275,-0.0796379
1.473,-0.0783699
1.47325,-0.0681781
1.4735,-0.0691066
1.47375,-0.0581728
1.474,-0.0543554
1.47425,-0.0535222
1.4745,-0.0558907
1.47475,-0.0625165
1.475,-0.0685995
1.47525,-0.091867
1.4755,-0.105001
1.47575,-0.122127
1.476,-0.14482
1.47625,-0.17547
1.4765,-0.200975
1.47675,-0.218092
1.477,-0.240328
1.47725,-0.263485
1.4775,-0.272679
1.47775,-0.280513
1.478,-0.276303
1.47825,-0.27102
1.4785,-0.259062
1.47875,-0.235942
1.479,-0.2094
1.47925,-0.179416
1.4795,-0.142405
1.47975,-0.105547
1.48,-0.0599994
1.48025,-0.0188903
1.4805,0.0244728
1.48075,0.0554644
1.481,0.0935591
1.48125,0.121
1.4815,0.138002
1.48175,0.153045
1.482,0.161203
1.48225,0.156072
1.4825,0.150077
1.48275,0.139229
1.483,0.117963
1.48325,0.0979773
1.4835,0.0786653
1.48375,0.0514945
1.484,0.0270918
1.48425,0.00711116
1.4845,-0.0165633
1.48475,-0.0356296
1.485,-0.0504831
1.48525,-0.0533731
1.4855,-0.059013
1.48575,-0.0676314
1.486,-0.0637358
1.48625,-0.0556299
1.4865,-0.0513911
1.48675,-0.0497539
1.487,-0.0456575
1.48725,-0.036583
1.4875,-0.0303761
1.48775,-0.0400604
1.488,-0.0435339
1.48825,-0.0489608
1.4885,-0.0611626
1.48875,-0.0776245
1.489,-0.0963512
1.48925,-0.125977
1.4895,-0.145965
1.48975,-0.165217
1.49,-0.190705
1.49025,-0.216031
1.4905,-0.231759
1.49075,-0.245845
1.491,-0.25428
1.49125,-0.255087
1.4915,-0.25174
1.49175,-0.245737
1.492,-0.225479
1.49225,-0.197136
1.4925,-0.162872
1.49275,-0.132258
1.493,-0.089134
1.49325,-0.0514559
1.4935,-0.00549088
1.49375,0.0265332
1.494,0.0655082
1.49425,0.102066
1.4945,0.136447
1.49475,0.155275
1.495,0.167079
1.49525,0.182724
1.4955,0.185435
1.49575,0.176958
1.496,0.167856
1.49625,0.150896
1.4965,0.132757
1.49675,0.106777
1.497,0.0872876
1.49725,0.0575015
1.4975,0.0420815
1.49775,0.0207356
1.498,-0.000866425
1.49825,-0.0208614
1.4985,-0.0304966
1.49875,-0.0384292
1.499,-0.0394546
1.49925,-0.0415913
1.4995,-0.0348218
1.49975,-0.0309981
1.5,-0.028838
1.50025,-0.0223412
1.5005,-0.0081979
1.50075,-0.00789646
1.501,-0.0104135
1.50125,-0.00791799
1.5015,-0.0198575
1.50175,-0.0318749
1.502,-0.0461404
1.50225,-0.0618619
1.5025,-0.0896189
1.50275,-0.115838
1.503,-0.135182
1.50325,-0.158318
1.5035,-0.180809
1.50375,-0.19746
1.504,-0.217304
1.50425,-0.231972
1.5045,-0.228419
1.50475,-0.229008
1.505,-0.217643
1.50525,-0.20812
1.5055,-0.184302
1.50575,-0.155631
1.506,-0.115811
1.50625,-0.0826878
1.5065,-0.0372792
1.50675,0.00730219
1.507,0.0432364
1.50725,0.0809719
1.5075,0.120686
1.50775,0.149232
1.508,0.171286
1.50825,0.193682
1.5085,0.208726
1.50875,0.205631
1.509,0.209305
1.50925,0.201587
1.5095,0.185369
1.50975,0.162856
1.51,0.144658
1.51025,0.117529
1.5105,0.0921879
1.51075,0.0739702
1.511,0.0469239
1.51125,0.0268788
1.5115,0.0111182
1.51175,0.000801447
1.512,-0.010254
1.51225,-0.0165895
1.5125,-0.0137384
1.51275,-0.00954074
1.513,-0.00959247
1.51325,0.00173139
1.5135,0.0102649
1.51375,0.0070278
1.514,0.019038
1.51425,0.0122416
1.5145,0.0164479
1.51475,0.00538502
1.515,0.00161076
1.51525,-0.016959
1.5155,-0.0378967
1.51575,-0.0495242
1.516,-0.0792634
1.51625,-0.102061
1.5165,-0.127186
1.51675,-0.145435
1.517,-0.170416
1.51725,-0.187018
1.5175,-0.201756
1.51775,-0.208528
1.518,-0.206311
1.51825,-0.196746
1.5185,-0.185285
1.51875,-0.162641
1.519,-0.133196
1.51925,-0.105966
1.5195,-0.0707042
1.51975,-0.0334551
1.52,0.0111807
1.52025,0.0522436
1.5205,0.0941622
1.52075,0.13176
1.521,0.165565
1.52125,0.190685
1.5215,0.213651
1.52175,0.221624
1.522,0.235937
1.52225,0.234125
1.5225,0.229803
1.52275,0.218039
1.523,0.194004
1.52325,0.176112
1.5235,0.155521
1.52375,0.130282
1.524,0.102679
1.52425,0.0824457
1.5245,0.0542426
1.52475,0.0363995
1.525,0.0309868
1.52525,0.016638
1.5255,0.00707803
1.52575,0.00394088
1.526,0.0068727
1.52625,0.0141017
1.5265,0.019697
1.52675,0.0235463
1.527,0.0326426
1.52725,0.0318204
1.5275,0.0400814
1.52775,0.0334388
1.528,0.0350273
1.52825,0.0198306
1.5285,0.00586168
1.52875,-0.0074863
1.529,-0.0310297
1.52925,-0.0489249
1.5295,-0.0700262
1.52975,-0.101279
1.53,-0.122449
1.53025,-0.145545
1.5305,-0.165505
1.53075,-0.17584
1.531,-0.187994
1.53125,-0.184527
1.5315,-0.181247
1.53175,-0.1757
1.532,-0.1558
1.53225,-0.128691
1.5325,-0.0994403
1.53275,-0.0684317
1.533,-0.026564
1.53325,0.0193307
1.5335,0.0582053
1.53375,0.100133
1.534,0.130544
1.53425,0.167488
1.5345,0.197059
1.53475,0.222978
1.535,0.236625
1.53525,0.244997
1.5355,0.252383
1.53575,0.247442
1.536,0.232934
1.53625,0.216259
1.5365,0.19469
1.53675,0.173531
1.537,0.153916
1.53725,0.122508
1.5375,0.101641
1.53775,0.0774533
1.538,0.06275
1.53825,0.0459703
1.5385,0.034261
1.53875,0.0226579
1.539,0.0177763
1.53925,0.0261655
1.5395,0.0202211
1.53975,0.0249716
1.54,0.0387608
1.54025,0.0389659
1.5405,0.0503539
1.54075,0.0527182
1.541,0.0511201
1.54125,0.0480532
1.5415,0.0353903
1.54175,0.0244434
1.542,0.0119261
1.54225,-0.00875214
1.5425,-0.0316773
1.54275,-0.0514738
1.543,-0.0821089
1.54325,-0.102368
1.5435,-0.124772
1.54375,-0.152584
1.544,-0.160871
1.54425,-0.174027
1.5445,-0.182543
1.54475,-0.182214
1.545,-0.169283
1.54525,-0.151048
1.5455,-0.131701
1.54575,-0.105728
1.546,-0.0649845
1.54625,-0.0340799
1.5465,0.0118915
1.54675,0.05318
1.547,0.0922823
1.54725,0.133033
1.5475,0.161234
1.54775,0.199698
1.548,0.217563
1.54825,0.241029
1.5485,0.247646
1.54875,0.25622
1.549,0.253308
1.54925,0.248794
1.5495,0.225874
1.54975,0.210261
1.55,0.191795
1.55025,0.159045
1.5505,0.13413
1.55075,0.116852
1.551,0.0932841
1.55125,0.073881
1.5515,0.0495071
1.55175,0.0429286
1.552,0.0272818
1.55225,0.0248135
1.5525,0.0298373
1.55275,0.0301757
1.553,0.03499
1.55325,0.0321155
1.5535,0.0396429
1.55375,0.0474531
1.554,0.0476892
1.55425,0.0471173
1.5545,0.052214
1.55475,0.0392026
1.555,0.0341228
1.55525,0.0157507
1.5555,-0.00326583
1.55575,-0.0220494
1.556,-0.0474963
1.55625,-0.0731946
1.5565,-0.097033
1.55675,-0.123577
1.557,-0.140083
1.55725,-0.161828
1.5575,-0.170303
1.55775,-0.176057
1.558,-0.175308
1.55825,-0.174926
1.5585,-0.154012
1.55875,-0.137769
1.559,-0.114992
1.55925,-0.0823274
1.5595,-0.038558
1.55975,-0.00735544
1.56,0.0320498
1.56025,0.0797307
1.5605,0.121602
1.56075,0.157763
1.561,0.183912
1.56125,0.208872
1.5615,0.229254
1.56175,0.25015
1.562,0.25312
1.56225,0.256834
1.5625,0.244102
1.56275,0.231878
1.563,0.21102
1.56325,0.195116
1.5635,0.164804
1.56375,0.146872
1.564,0.114363
1.56425,0.100031
1.5645,0.0787613
1.56475,0.0588004
1.565,0.0422211
1.56525,0.0260967
1.5655,0.0285452
1.56575,0.0227911
1.566,0.0241991
1.56625,0.0289825
1.5665,0.0309585
1.56675,0.038926
1.567,0.0444233
1.56725,0.0427088
1.5675,0.0479393
1.56775,0.0446523
1.568,0.0390311
1.56825,0.0309975
1.5685,0.0146351
1.56875,0.0023184
1.569,-0.0222777
1.56925,-0.044039
1.5695,-0.0654572
1.56975,-0.0935373
1.57,-0.122007
1.57025,-0.145032
1.5705,-0.163163
1.57075,-0.172934
1.571,-0.179312
1.57125,-0.190118
1.5715,-0.181284
1.57175,-0.16782
1.572,-0.154024
1.57225,-0.123692
1.5725,-0.0944916
1.57275,-0.0613521
1.573,-0.0217908
1.57325,0.0186945
1.5735,0.057108
1.57375,0.0962534
1.574,0.131633
1.57425,0.169935
1.5745,0.19914
1.57475,0.222518
1.575,0.230998
1.57525,0.244552
1.5755,0.243343
1.57575,0.239643
1.576,0.231412
1.57625,0.210431
1.5765,0.192038
1.57675,0.164827
1.577,0.144003
1.57725,0.117151
1.5775,0.0926545
1.57775,0.0698389
1.578,0.0550138
1.57825,0.0349467
1.5785,0.0241447
1.57875,0.0205314
1.579,0.0149351
1.57925,0.0163641
1.5795,0.018141
1.57975,0.0240297
1.58,0.0268142
1.58025,0.0260893
1.5805,0.0350138
1.58075,0.0406245
1.581,0.0395843
1.58125,0.0343978
1.5815,0.0289132
1.58175,0.0166711
1.582,1.96E-05
1.58225,-0.0220229
1.5825,-0.0466824
1.58275,-0.0661931
1.583,-0.0919798
1.58325,-0.121604
1.5835,-0.141708
1.58375,-0.16317
1.584,-0.183894
1.58425,-0.193698
1.5845,-0.19549
1.58475,-0.196329
1.585,-0.184581
1.58525,-0.173989
1.5855,-0.147845
1.58575,-0.121061
1.586,-0.0859843
1.58625,-0.0506483
1.5865,-0.009215
1.58675,0.0322052
1.587,0.070632
1.58725,0.109984
1.5875,0.151736
1.58775,0.176633
1.588,0.205597
1.58825,0.214807
1.5885,0.230705
1.58875,0.231121
1.589,0.235742
1.58925,0.222675
1.5895,0.206593
1.58975,0.187975
1.59,0.167624
1.59025,0.143167
1.5905,0.119053
1.59075,0.0926839
1.591,0.0648573
1.59125,0.0476014
1.5915,0.0310184
1.59175,0.0209901
1.592,0.0128641
1.59225,0.00602604
1.5925,0.00198746
1.59275,0.00578343
1.593,0.00769294
1.59325,0.00850888
1.5935,0.0151237
1.59375,0.0249664
1.594,0.0295613
1.59425,0.0293936
1.5945,0.0271612
1.59475,0.013677
1.595,0.00486505
1.59525,-0.00356812
1.5955,-0.021926
1.59575,-0.0492718
1.596,-0.068515
1.59625,-0.100688
1.5965,-0.12203
1.59675,-0.141754
1.597,-0.167558
1.59725,-0.185381
1.5975,-0.199606
1.59775,-0.202402
1.598,-0.20243
1.59825,-0.200682
1.5985,-0.188993
1.59875,-0.169977
1.599,-0.14443
1.59925,-0.108734
1.5995,-0.0764249
1.59975,-0.0358664
1.6,0.0125914
1.60025,0.0480994
1.6005,0.0846126
1.60075,0.129533
1.601,0.160144
1.60125,0.180706
1.6015,0.205399
1.60175,0.21429
1.602,0.221533
1.60225,0.21911
1.6025,0.211508
1.60275,0.206554
1.603,0.1826
1.60325,0.159935
1.6035,0.137528
1.60375,0.112964
1.604,0.0904509
1.60425,0.0665458
1.6045,0.0455066
1.60475,0.0210162
1.605,0.00931799
1.60525,-0.00168158
1.6055,-0.00541232
1.60575,-0.0125952
1.606,-0.0118077
1.60625,-0.0030309
1.6065,0.00365733
1.60675,0.00955302
1.607,0.0078246
1.60725,0.0195941
1.6075,0.0197989
1.60775,0.012343
1.608,0.00700265
1.60825,0.00537668
1.6085,-0.00939663
1.60875,-0.0330068
1.609,-0.0487703
1.60925,-0.0719886
1.6095,-0.0974708
1.60975,-0.1222
1.61,-0.147244
1.61025,-0.171163
1.6105,-0.189383
1.61075,-0.209092
1.611,-0.211246
1.61125,-0.215977
1.6115,-0.208513
1.61175,-0.202032
1.612,-0.185642
1.61225,-0.162215
1.6125,-0.128296
1.61275,-0.0938749
1.613,-0.0530417
1.61325,-0.0183795
1.6135,0.0279005
1.61375,0.0664916
1.614,0.106734
1.61425,0.142119
1.6145,0.171217
1.61475,0.187779
1.615,0.201668
1.61525,0.2183
1.6155,0.213665
1.61575,0.207155
1.616,0.200649
1.61625,0.185696
1.6165,0.160029
1.61675,0.136473
1.617,0.112648
1.61725,0.0922973
1.6175,0.0630788
1.61775,0.0437946
1.618,0.0215346
1.61825,0.0116497
1.6185,-0.00135493
1.61875,-0.0159628
1.619,-0.0192065
1.61925,-0.0117331
1.6195,-0.0112497
1.61975,-0.0101009
1.62,-0.00351787
1.62025,0.00745748
1.6205,0.00563126
1.62075,0.0115587
1.621,0.00733474
1.62125,0.00639056
1.6215,-0.00256246
1.62175,-0.0127978
1.622,-0.0278589
1.62225,-0.0461515
1.6225,-0.0757665
1.62275,-0.100012
1.623,-0.124977
1.62325,-0.146167
1.6235,-0.165141
1.62375,-0.187152
1.624,-0.207162
1.62425,-0.219673
1.6245,-0.219839
1.62475,-0.21866
1.625,-0.214535
1.62525,-0.194287
1.6255,-0.170258
1.62575,-0.145147
1.626,-0.111416
1.62625,-0.0702719
1.6265,-0.0371449
1.62675,0.00365877
1.627,0.0500826
1.62725,0.0842712
1.6275,0.123981
1.62775,0.153826
1.628,0.176363
1.62825,0.197302
1.6285,0.203436
1.62875,0.211819
1.629,0.205014
1.62925,0.198931
1.6295,0.189565
1.62975,0.165556
1.63,0.146106
1.63025,0.115712
1.6305,0.0926605
1.63075,0.066411
1.631,0.0492251
1.63125,0.026204
1.6315,0.00634749
1.63175,-0.00508608
1.632,-0.0126207
1.63225,-0.0206541
1.6325,-0.014948
1.63275,-0.0216231
1.633,-0.0109803
1.63325,-0.00584104
1.6335,0.000111355
1.63375,0.00446373
1.634,0.00917656
1.63425,0.0112564
1.6345,0.00911163
1.63475,-0.00233791
1.635,-0.0165394
1.63525,-0.0290851
1.6355,-0.0484452
1.63575,-0.0691882
1.636,-0.0925542
1.63625,-0.118139
1.6365,-0.144897
1.63675,-0.164147
1.637,-0.189315
1.63725,-0.207562
1.6375,-0.219677
1.63775,-0.220352
1.638,-0.226143
1.63825,-0.220412
1.6385,-0.206742
1.63875,-0.17863
1.639,-0.158121
1.63925,-0.121496
1.6395,-0.0879847
1.63975,-0.0452667
1.64,-0.00680946
1.64025,0.0356721
1.6405,0.069432
1.64075,0.111093
1.641,0.138767
1.64125,0.169501
1.6415,0.191876
1.64175,0.19854
1.642,0.205148
1.64225,0.209366
1.6425,0.198646
1.64275,0.194164
1.643,0.172356
1.64325,0.152833
1.6435,0.127664
1.64375,0.0974867
1.644,0.0777588
1.64425,0.058573
1.6445,0.0361188
1.64475,0.0138167
1.645,-0.00100128
1.64525,-0.015032
1.6455,-0.0217406
1.64575,-0.0229642
1.646,-0.0168668
1.64625,-0.0142882
1.6465,-0.0149329
1.64675,-0.00863402
1.647,0.00363057
1.64725,0.00763286
1.6475,0.00605621
1.64775,0.00405701
1.648,0.00512372
1.64825,-0.00895999
1.6485,-0.0184678
1.64875,-0.0386993
1.649,-0.0563555
1.64925,-0.0814731
1.6495,-0.105833
1.64975,-0.134509
1.65,-0.15803
1.65025,-0.180067
1.6505,-0.19618
1.65075,-0.210113
1.651,-0.215858
1.65125,-0.218336
1.6515,-0.214632
1.65175,-0.2118
1.652,-0.192902
1.65225,-0.15952
1.6525,-0.129873
1.65275,-0.103048
1.653,-0.0555231
1.65325,-0.0208879
1.6535,0.0271934
1.65375,0.064475
1.654,0.0985533
1.65425,0.132216
1.6545,0.162279
1.65475,0.188793
1.655,0.197505
1.65525,0.209948
1.6555,0.213849
1.65575,0.206305
1.656,0.197179
1.65625,0.184513
1.6565,0.165583
1.65675,0.140109
1.657,0.115322
1.65725,0.0897125
1.6575,0.0633997
1.65775,0.0432154
1.658,0.0226524
1.65825,0.00141907
1.6585,-0.00320403
1.65875,-0.0128498
1.659,-0.0145445
1.65925,-0.0180924
1.6595,-0.0170887
1.65975,-0.0137877
1.66,7.57E-05
1.66025,0.000505649
1.6605,0.00458708
1.66075,0.012628
1.661,0.0128481
1.66125,0.00574298
1.6615,-0.0037416
1.66175,-0.0125643
1.662,-0.0266881
1.66225,-0.0504775
1.6625,-0.0712694
1.66275,-0.0994365
1.663,-0.121541
1.66325,-0.140066
1.6635,-0.169916
1.66375,-0.185892
1.664,-0.203833
1.66425,-0.211567
1.6645,-0.223762
1.66475,-0.215746
1.665,-0.209497
1.66525,-0.190635
1.6655,-0.167148
1.66575,-0.143964
1.666,-0.108916
1.66625,-0.0686149
1.6665,-0.0309447
1.66675,0.0104738
1.667,0.0555232
1.66725,0.094734
1.6675,0.122584
1.66775,0.160507
1.668,0.177
1.66825,0.201485
1.6685,0.214136
1.66875,0.214961
1.669,0.210824
1.66925,0.199788
1.6695,0.187179
1.66975,0.174057
1.67,0.152481
1.67025,0.125396
1.6705,0.0994863
1.67075,0.0708277
1.671,0.0504337
1.67125,0.0310981
1.6715,0.0194582
1.67175,-0.000977037
1.672,-0.00723348
1.67225,-0.0137323
1.6725,-0.0124049
1.67275,-0.0139533
1.673,-0.0110822
1.67325,-0.00481486
1.6735,-0.00105426
1.67375,0.00893671
1.674,0.0142171
1.67425,0.00888389
1.6745,0.015291
1.67475,0.00735709
1.675,-0.0101773
1.67525,-0.0228791
1.6755,-0.0421832
1.67575,-0.0615792
1.676,-0.0850734
1.67625,-0.106607
1.6765,-0.128555
1.67675,-0.157775
1.677,-0.176843
1.67725,-0.198271
1.6775,-0.206968
1.67775,-0.214741
1.678,-0.215153
1.67825,-0.211835
1.6785,-0.19158
1.67875,-0.173601
1.679,-0.150052
1.67925,-0.115718
1.6795,-0.0824249
1.67975,-0.0432153
1.68,-0.000916738
1.68025,0.0426555
1.6805,0.0874243
1.68075,0.122632
1.681,0.147403
1.68125,0.173813
1.6815,0.20179
1.68175,0.20976
1.682,0.21417
1.68225,0.223266
1.6825,0.210766
1.68275,0.20345
1.683,0.182191
1.68325,0.162869
1.6835,0.139943
1.68375,0.107686
1.684,0.0850357
1.68425,0.0592132
1.6845,0.0402304
1.68475,0.0231231
1.685,0.00631156
1.68525,0.00335254
1.6855,-0.00281029
1.68575,-0.00767483
1.686,-0.00801672
1.68625,-0.00273542
1.6865,0.00161291
1.68675,0.00260621
1.687,0.0087471
1.68725,0.0106231
1.6875,0.0137709
1.68775,0.0128299
1.688,0.0125529
1.68825,-0.00255995
1.6885,-0.00871024
1.68875,-0.032594
1.689,-0.0534041
1.68925,-0.0691799
1.6895,-0.0919867
1.68975,-0.117383
1.69,-0.147976
1.69025,-0.169223
1.6905,-0.186588
1.69075,-0.199003
1.691,-0.209567
1.69125,-0.213371
1.6915,-0.20855
1.69175,-0.191949
1.692,-0.179649
1.69225,-0.15716
1.6925,-0.121842
1.69275,-0.0871818
1.693,-0.0517941
1.69325,-0.00402688
1.6935,0.0321029
1.69375,0.069502
1.694,0.107273
1.69425,0.143414
1.6945,0.171866
1.69475,0.196117
1.695,0.207899
1.69525,0.216087
1.6955,0.223331
1.69575,0.217101
1.696,0.20516
1.69625,0.187888
1.6965,0.173469
1.69675,0.144855
1.697,0.123601
1.69725,0.0976921
1.6975,0.0754988
1.69775,0.0508982
1.698,0.0307686
1.69825,0.0175567
1.6985,0.00581435
1.69875,-0.000547745
1.699,-0.00186815
1.69925,-0.00516987
1.6995,-0.00688216
1.69975,0.00338016
1.7,0.00536474
1.70025,0.0151836
1.7005,0.0148039
1.70075,0.0177848
1.701,0.0180295
1.70125,0.0201299
1.7015,0.00326652
1.70175,-0.00586652
1.702,-0.0192489
1.70225,-0.039545
1.7025,-0.0583443
1.70275,-0.0834714
1.703,-0.107129
1.70325,-0.131766
1.7035,-0.153982
1.70375,-0.173919
1.704,-0.197978
1.70425,-0.205782
1.7045,-0.21407
1.70475,-0.206078
1.705,-0.201711
1.70525,-0.178629
1.7055,-0.155812
1.70575,-0.131229
1.706,-0.101034
1.70625,-0.0556176
1.7065,-0.0231464
1.70675,0.0166886
1.707,0.06108
1.70725,0.0960169
1.7075,0.138965
1.70775,0.161037
1.708,0.186531
1.70825,0.207775
1.7085,0.220046
1.70875,0.22343
1.709,0.22441
1.70925,0.209132
1.7095,0.203077
1.70975,0.175269
1.71,0.157908
1.71025,0.136268
1.7105,0.111893
1.71075,0.086588
1.711,0.0608552
1.71125,0.0365521
1.7115,0.0232215
1.71175,0.0134113
1.712,-0.00234191
1.71225,0.000746254
1.7125,-0.00939619
1.71275,-0.00540522
1.713,-0.00163296
1.71325,0.00132229
1.7135,0.0130684
1.71375,0.0206117
1.714,0.0215363
1.71425,0.0212675
1.7145,0.0178678
1.71475,0.00992431
1.715,0.0050227
1.71525,-0.00990728
1.7155,-0.0297223
1.71575,-0.0480235
1.716,-0.077577
1.71625,-0.099669
1.7165,-0.124693
1.71675,-0.150355
1.717,-0.170341
1.71725,-0.192334
1.7175,-0.200242
1.71775,-0.211774
1.718,-0.206142
1.71825,-0.198777
1.7185,-0.191392
1.71875,-0.170234
1.719,-0.138514
1.71925,-0.108723
1.7195,-0.0709747
1.71975,-0.0364485
1.72,0.006575
1.72025,0.053499
1.7205,0.088723
1.72075,0.126184
1.721,0.153542
1.72125,0.183217
1.7215,0.205664
1.72175,0.216442
1.722,0.222222
1.72225,0.222616
1.7225,0.218301
1.72275,0.204964
1.723,0.189978
1.72325,0.162078
1.7235,0.142571
1.72375,0.117191
1.724,0.0893804
1.72425,0.0677345
1.7245,0.0459181
1.72475,0.0321028
1.725,0.0120097
1.72525,0.00464964
1.7255,0.000565188
1.72575,-0.000597284
1.726,-0.00158627
1.72625,0.00392365
1.7265,0.00238964
1.72675,0.00685602
1.727,0.0146163
1.72725,0.0206423
1.7275,0.0231029
1.72775,0.0153223
1.728,0.0114844
1.72825,0.00725913
1.7285,-0.00709929
1.72875,-0.0202176
1.729,-0.0432565
1.72925,-0.0638024
1.7295,-0.0917358
1.72975,-0.122166
1.73,-0.142182
1.73025,-0.161509
1.7305,-0.178358
1.73075,-0.196247
1.731,-0.204292
1.73125,-0.212125
1.7315,-0.208474
1.73175,-0.190849
1.732,-0.173412
1.73225,-0.150621
1.7325,-0.123484
1.73275,-0.0804704
1.733,-0.0472042
1.73325,-0.00252819
1.7335,0.0321551
1.73375,0.0735595
1.734,0.108549
1.73425,0.150641
1.7345,0.176689
1.73475,0.200847
1.735,0.21854
1.73525,0.225158
1.7355,0.226469
1.73575,0.225019
1.736,0.206205
1.73625,0.188585
1.7365,0.175243
1.73675,0.151297
1.737,0.128247
1.73725,0.0976743
1.7375,0.0759984
1.73775,0.050805
1.738,0.0292793
1.73825,0.0139033
1.7385,0.00832199
1.73875,0.000450362
1.739,-0.00404249
1.73925,-0.000520614
1.7395,0.000658209
1.73975,0.005243
1.74,0.00755125
1.74025,0.0106814
1.7405,0.0190884
1.74075,0.0162339
1.741,0.0235294
1.74125,0.0174104
1.7415,0.0129019
1.74175,-0.00725108
1.742,-0.0159553
1.74225,-0.0346547
1.7425,-0.0593345
1.74275,-0.0881312
1.743,-0.109471
1.74325,-0.138827
1.7435,-0.159717
1.74375,-0.18191
1.744,-0.19861
1.74425,-0.200728
1.7445,-0.2103
1.74475,-0.211652
1.745,-0.201361
1.74525,-0.183693
1.7455,-0.159433
1.74575,-0.134942
1.746,-0.0947371
1.74625,-0.0649255
1.7465,-0.0159362
1.74675,0.0238115
1.747,0.0654831
1.74725,0.104562
1.7475,0.139187
1.74775,0.1643
1.748,0.190364
1.74825,0.212318
1.7485,0.217763
1.74875,0.223372
1.749,0.218127
1.74925,0.213375
1.7495,0.197614
1.74975,0.176555
1.75,0.152527
1.75025,0.133768
1.7505,0.107628
1.75075,0.0825273
1.751,0.0614687
1.75125,0.0349097
1.7515,0.0230488
1.75175,0.0116035
1.752,0.00251929
1.75225,-0.00661499
1.7525,-0.0103699
1.75275,-0.0011698
1.753,0.00384095
1.75325,0.00593954
1.7535,0.0133325
1.75375,0.0187566
1.754,0.0207451
1.75425,0.0244242
1.7545,0.0213856
1.75475,0.0150888
1.755,-0.000192443
1.75525,-0.018924
1.7555,-0.0317903
1.75575,-0.0576887
1.756,-0.0744622
1.75625,-0.10563
1.7565,-0.123511
1.75675,-0.151151
1.757,-0.171842
1.75725,-0.190835
1.7575,-0.200722
1.75775,-0.21458
1.758,-0.207422
1.75825,-0.199564
1.7585,-0.189233
1.75875,-0.173298
1.759,-0.138032
1.75925,-0.111948
1.7595,-0.0744383
1.75975,-0.0303031
1.76,0.00655372
1.76025,0.0457405
1.7605,0.0880545
1.76075,0.122543
1.761,0.157084
1.76125,0.180063
1.7615,0.204959
1.76175,0.217831
1.762,0.21971
1.76225,0.221326
1.7625,0.218524
1.76275,0.202479
1.763,0.188281
1.76325,0.162789
1.7635,0.141149
1.76375,0.112707
1.764,0.0937793
1.76425,0.065058
1.7645,0.0400964
1.76475,0.0262977
1.765,0.0101099
1.76525,-0.00199477
1.7655,-0.00836241
1.76575,-0.00413453
1.766,-0.00916519
1.76625,-0.00345887
1.7665,0.00327531
1.76675,0.0125858
1.767,0.0161378
1.76725,0.0170351
1.7675,0.0208505
1.76775,0.0138466
1.768,0.0159504
1.76825,0.00140566
1.7685,-0.0141453
1.76875,-0.0238153
1.769,-0.04661
1.76925,-0.0704465
1.7695,-0.0959842
1.76975,-0.122797
1.77,-0.144015
1.77025,-0.167641
1.7705,-0.190349
1.77075,-0.201659
1.771,-0.212722
1.77125,-0.214602
1.7715,-0.211057
1.77175,-0.192865
1.772,-0.175939
1.77225,-0.157769
1.7725,-0.122352
1.77275,-0.0891334
1.773,-0.0535167
1.77325,-0.0076095
1.7735,0.0310035
1.77375,0.0723863
1.774,0.111136
1.77425,0.142331
1.7745,0.171469
1.77475,0.193136
1.775,0.21537
1.77525,0.221022
1.7755,0.219478
1.77575,0.212562
1.776,0.204122
1.77625,0.193673
1.7765,0.171952
1.77675,0.14676
1.777,0.118668
1.77725,0.0977165
1.7775,0.0690902
1.77775,0.046769
1.778,0.0348759
1.77825,0.0123755
1.7785,0.0071352
1.77875,-0.00465601
1.779,-0.00698804
1.77925,-0.0115186
1.7795,-0.00772406
1.77975,-0.00171406
1.78,0.000929496
1.78025,0.0147647
1.7805,0.0111231
1.78075,0.0139116
1.781,0.0209033
1.78125,0.00916712
1.7815,0.0107681
1.78175,-0.00148151
1.782,-0.0215241
1.78225,-0.0435646
1.7825,-0.0637308
1.78275,-0.083257
1.783,-0.112163
1.78325,-0.136908
1.7835,-0.164841
1.78375,-0.18494
1.784,-0.198154
1.78425,-0.207304
1.7845,-0.215162
1.78475,-0.211635
1.785,-0.202578
1.78525,-0.186117
1.7855,-0.160297
1.78575,-0.129503
1.786,-0.0978481
1.78625,-0.0645303
1.7865,-0.0184053
1.78675,0.0196247
1.787,0.0631895
1.78725,0.0975741
1.7875,0.132622
1.78775,0.163846
1.788,0.1904
1.78825,0.209048
1.7885,0.215461
1.78875,0.220847
1.789,0.217375
1.78925,0.211808
1.7895,0.199517
1.78975,0.179199
1.79,0.150196
1.79025,0.132418
1.7905,0.100936
1.79075,0.0753561
1.791,0.0563732
1.79125,0.0374551
1.7915,0.0182568
1.79175,0.00501264
1.792,-0.00613176
1.79225,-0.0116654
1.7925,-0.00854138
1.79275,-0.0102562
1.793,-0.00498468
1.79325,0.006573
1.7935,0.010041
1.79375,0.0139368
1.794,0.0182144
1.79425,0.0187584
1.7945,0.0145946
1.79475,0.00812539
1.795,-0.000185708
1.79525,-0.0176436
1.7955,-0.0354563
1.79575,-0.0592994
1.796,-0.0836851
1.79625,-0.103646
1.7965,-0.126976
1.79675,-0.154692
1.797,-0.17332
1.79725,-0.193704
1.7975,-0.201443
1.79775,-0.215475
1.798,-0.216226
1.79825,-0.209682
1.7985,-0.19553
1.79875,-0.169974
1.799,-0.143178
1.79925,-0.110497
1.7995,-0.0793885
1.79975,-0.0383031
1.8,0.00860319
1.80025,0.0415984
1.8005,0.0808484
1.80075,0.121594
1.801,0.152999
1.80125,0.177861
1.8015,0.205014
1.80175,0.212793
1.802,0.223935
1.80225,0.221912
1.8025,0.210855
1.80275,0.198546
1.803,0.18327
1.80325,0.157691
1.8035,0.137969
1.80375,0.113821
1.804,0.0910478
1.80425,0.0645912
1.8045,0.0391438
1.80475,0.0274492
1.805,0.00781621
1.80525,-0.00495445
1.8055,-0.00855062
1.80575,-0.00955777
1.806,-0.00588415
1.80625,-0.00214492
1.8065,0.000488524
1.80675,0.00128678
1.807,0.0167003
1.80725,0.012303
1.8075,0.0175674
1.80775,0.0113664
1.808,0.0160336
1.80825,0.0040424
1.8085,-0.006323
1.80875,-0.0299752
1.809,-0.0528298
1.80925,-0.0676056
1.8095,-0.0943501
1.80975,-0.118064
1.81,-0.150289
1.81025,-0.163079
1.8105,-0.184974
1.81075,-0.201102
1.811,-0.208446
1.81125,-0.21543
1.8115,-0.203864
1.81175,-0.202206
1.812,-0.178998
1.81225,-0.156318
1.8125,-0.120509
1.81275,-0.0893526
1.813,-0.054451
1.81325,-0.012646
1.8135,0.0348722
1.81375,0.0761202
1.814,0.11289
1.81425,0.138367
1.8145,0.174517
1.81475,0.192145
1.815,0.211872
1.81525,0.217086
1.8155,0.223745
1.81575,0.212022
1.816,0.207854
1.81625,0.189663
1.8165,0.165359
1.81675,0.150017
1.817,0.126044
1.81725,0.0925471
1.8175,0.0727939
1.81775,0.0474724
1.818,0.0312697
1.81825,0.018909
1.8185,0.00780355
1.81875,-0.00295756
1.819,-0.00418638
1.81925,-0.0127874
1.8195,-0.00882765
1.81975,0.00365375
1.82,0.0018125
1.82025,0.0138181
1.8205,0.0131124
1.82075,0.0140206
1.821,0.0162785
1.82125,0.0127883
1.8215,0.00549266
1.82175,-0.010087
1.822,-0.0224491
1.82225,-0.0380716
1.8225,-0.0661672
1.82275,-0.0837805
1.823,-0.113285
1.82325,-0.13395
1.8235,-0.159837
1.82375,-0.185146
1.824,-0.196117
1.82425,-0.203865
1.8245,-0.214323
1.82475,-0.206815
1.825,-0.20374
1.82525,-0.190252
1.8255,-0.164073
1.82575,-0.135936
1.826,-0.100906
1.82625,-0.0611841
1.8265,-0.0265434
1.82675,0.0209018
1.827,0.0572655
1.82725,0.0930497
1.8275,0.130417
1.82775,0.159915
1.828,0.191694
1.82825,0.204331
1.8285,0.221539
1.82875,0.218047
1.829,0.218633
1.82925,0.212526
1.8295,0.19295
1.82975,0.175798
1.83,0.15129
1.83025,0.126673
1.8305,0.108582
1.83075,0.0806048
1.831,0.0558121
1.83125,0.0319681
1.8315,0.0198476
1.83175,0.00525728
1.832,-0.0032895
1.83225,-0.0116786
1.8325,-0.00495054
1.83275,-0.00368451
1.833,-0.00702788
1.83325,0.00326787
1.8335,0.00565388
1.83375,0.0120173
1.834,0.0152135
1.83425,0.0224193
1.8345,0.0198736
1.83475,0.0118129
1.835,-0.00428742
1.83525,-0.0124567
1.8355,-0.0300494
1.83575,-0.0550462
1.836,-0.0841701
1.83625,-0.105773
1.8365,-0.129631
1.83675,-0.152449
1.837,-0.170886
1.83725,-0.195955
1.8375,-0.208347
1.83775,-0.212406
1.838,-0.210036
1.83825,-0.209352
1.8385,-0.188927
1.83875,-0.1686
1.839,-0.144561
1.83925,-0.112314
1.8395,-0.0727179
1.83975,-0.035052
1.84,0.00954982
1.84025,0.0444922
1.8405,0.0844926
1.84075,0.119418
1.841,0.151921
1.84125,0.177669
1.8415,0.199301
1.84175,0.216291
1.842,0.220343
1.84225,0.225303
1.8425,0.218161
1.84275,0.199096
1.843,0.181976
1.84325,0.161734
1.8435,0.13774
1.84375,0.108827
1.844,0.0921164
1.84425,0.0696974
1.8445,0.0445773
1.84475,0.0300657
1.845,0.0114819
1.84525,0.00163702
1.8455,-0.00881661
1.84575,-0.00461007
1.846,-0.00673632
1.84625,-0.00628036
1.8465,0.000703008
1.84675,0.00265193
1.847,0.00869018
1.84725,0.0165723
1.8475,0.0149506
1.84775,0.0123973
1.848,0.0128782
1.84825,0.00151866
1.8485,-0.00898502
1.84875,-0.0310668
1.849,-0.0456154
1.84925,-0.073422
1.8495,-0.0988363
1.84975,-0.123808
1.85,-0.145801
1.85025,-0.162568
1.8505,-0.182945
1.85075,-0.202915
1.851,-0.210789
1.85125,-0.209859
1.8515,-0.204167
1.85175,-0.20018
1.852,-0.181426
1.85225,-0.157253
1.8525,-0.127284
1.85275,-0.087859
1.853,-0.0479443
1.85325,-0.0103
1.8535,0.0319477
1.85375,0.0750121
1.854,0.111794
1.85425,0.143177
1.8545,0.174132
1.85475,0.195621
1.855,0.212092
1.85525,0.222146
1.8555,0.226671
1.85575,0.21341
1.856,0.20825
1.85625,0.190557
1.8565,0.168257
1.85675,0.148177
1.857,0.126236
1.85725,0.0957726
1.8575,0.0722311
1.85775,0.0527312
1.858,0.0278446
1.85825,0.0147565
1.8585,0.00687418
1.85875,-0.000478808
1.859,-0.00482564
1.85925,-0.00676908
1.8595,-0.000661457
1.85975,-0.00478667
1.86,0.00163368
1.86025,0.00837782
1.8605,0.0153184
1.86075,0.0226821
1.861,0.0226373
1.86125,0.0109332
1.8615,0.00756983
1.86175,-0.00314262
1.862,-0.0201152
1.86225,-0.0382815
1.8625,-0.0626711
1.86275,-0.0907397
1.863,-0.116596
1.86325,-0.13819
1.8635,-0.159353
1.86375,-0.180828
1.864,-0.195541
1.86425,-0.209422
1.8645,-0.207092
1.86475,-0.210137
1.865,-0.198283
1.86525,-0.182256
1.8655,-0.161759
1.86575,-0.135963
1.866,-0.0967614
1.86625,-0.0576389
1.8665,-0.0239113
1.86675,0.0151189
1.867,0.0632624
1.86725,0.0975405
1.8675,0.137319
1.86775,0.1675
1.868,0.186779
1.86825,0.211442
1.8685,0.21713
1.86875,0.219544
1.869,0.215965
1.86925,0.208685
1.8695,0.196399
1.86975,0.178053
1.87,0.152621
1.87025,0.129522
1.8705,0.103646
1.87075,0.0840128
1.871,0.0579843
1.87125,0.0408683
1.8715,0.0203729
1.87175,0.0115403
1.872,-0.00664583
1.87225,-0.00410514
1.8725,-0.00602648
1.87275,-0.00230652
1.873,0.000989244
1.87325,0.00590625
1.8735,0.0088963
1.87375,0.0160421
1.874,0.0138514
1.87425,0.0164504
1.8745,0.0177245
1.87475,0.00626854
1.875,-0.00241733
1.87525,-0.0174657
1.8755,-0.0357274
1.87575,-0.0588883
1.876,-0.0758975
1.87625,-0.100806
1.8765,-0.128755
1.87675,-0.15184
1.877,-0.172363
1.87725,-0.195481
1.8775,-0.206384
1.87775,-0.206442
1.878,-0.209607
1.87825,-0.20139
1.8785,-0.196022
1.87875,-0.169732
1.879,-0.143252
1.87925,-0.11168
1.8795,-0.0720611
1.87975,-0.031789
1.88,0.0100792
1.88025,0.0451454
1.8805,0.0889301
1.88075,0.125815
1.881,0.158284
1.88125,0.181768
1.8815,0.205421
1.88175,0.218823
1.882,0.219129
1.88225,0.224016
1.8825,0.212499
1.88275,0.199037
1.883,0.185727
1.88325,0.157955
1.8835,0.143913
1.88375,0.113513
1.884,0.0904449
1.88425,0.0673252
1.8845,0.0463717
1.88475,0.0291677
1.885,0.0157447
1.88525,0.00375258
1.8855,-0.00804728
1.88575,-0.00751682
1.886,-0.00246171
1.88625,-0.00235921
1.8865,0.00463421
1.88675,0.0104379
1.887,0.0166036
1.88725,0.0157111
1.8875,0.0232191
1.88775,0.0169447
1.888,0.00842419
1.88825,0.00138344
1.8885,-0.00690669
1.88875,-0.0223857
1.889,-0.0463827
1.88925,-0.0708695
1.8895,-0.098406
1.88975,-0.116593
1.89,-0.144767
1.89025,-0.16492
1.8905,-0.189387
1.89075,-0.196861
1.891,-0.208507
1.89125,-0.215347
1.8915,-0.206595
1.89175,-0.198428
1.892,-0.173182
1.89225,-0.153572
1.8925,-0.1223
1.89275,-0.0861449
1.893,-0.046148
1.89325,-0.0127563
1.8935,0.0327187
1.89375,0.0715091
1.894,0.109627
1.89425,0.144969
1.8945,0.176858
1.89475,0.19737
1.895,0.208551
1.89525,0.22081
1.8955,0.217914
1.89575,0.220293
1.896,0.207348
1.89625,0.194511
1.8965,0.171935
1.89675,0.147542
1.897,0.125596
1.89725,0.0968356
1.8975,0.071404
1.89775,0.0527474
1.898,0.0284281
1.89825,0.0140632
1.8985,0.00089405
1.89875,-0.00173815
1.899,-0.00356175
1.89925,-0.00903712
1.8995,-0.0010942
1.89975,-0.00354925
1.9,0.00328056
1.90025,0.00943607
1.9005,0.010847
1.90075,0.0184557
1.901,0.0175278
1.90125,0.0141465
1.9015,0.0112381
1.90175,-0.00970586
1.902,-0.0251514
1.90225,-0.0415982
1.9025,-0.0580739
1.90275,-0.0850166
1.903,-0.116952
1.90325,-0.141842
1.9035,-0.161465
1.90375,-0.178317
1.904,-0.191488
1.90425,-0.204646
1.9045,-0.213545
1.90475,-0.21153
1.905,-0.202713
1.90525,-0.188427
1.9055,-0.160111
1.90575,-0.129929
1.906,-0.0999012
1.90625,-0.0580221
1.9065,-0.0242273
1.90675,0.0143493
1.907,0.058369
1.90725,0.102286
1.9075,0.135601
1.90775,0.165919
1.908,0.189996
1.90825,0.207805
1.9085,0.219377
1.90875,0.225862
1.909,0.217331
1.90925,0.207565
1.9095,0.192783
1.90975,0.177545
1.91,0.150673
1.91025,0.131281
1.9105,0.109635
1.91075,0.0766105
1.911,0.0602808
1.91125,0.0339005
1.9115,0.0194272
1.91175,0.0062147
1.912,-0.00140691
1.91225,-0.00943058
1.9125,-0.00339469
1.91275,-0.00573546
1.913,-0.00369731
1.91325,0.00716465
1.9135,0.00706917
1.91375,0.0111033
1.914,0.0188953
1.91425,0.0162122
1.9145,0.0131602
1.91475,0.00524816
1.915,-0.0056222
1.91525,-0.0191281
1.9155,-0.0356203
1.91575,-0.0504942
1.916,-0.0818093
1.91625,-0.1051
1.9165,-0.132802
1.91675,-0.156938
1.917,-0.178174
1.91725,-0.187791
1.9175,-0.205565
1.91775,-0.213789
1.918,-0.214669
1.91825,-0.201994
1.9185,-0.191017
1.91875,-0.166196
1.919,-0.147797
1.91925,-0.116279
1.9195,-0.0724402
1.91975,-0.038306
1.92,0.00220464
1.92025,0.0486675
1.9205,0.090039
1.92075,0.118259
1.921,0.154316
1.92125,0.179071
1.9215,0.202283
1.92175,0.210434
1.922,0.216602
1.92225,0.223441
1.9225,0.212575
1.92275,0.19856
1.923,0.186446
1.92325,0.165013
1.9235,0.138554
1.92375,0.1111
1.924,0.088764
1.92425,0.0655663
1.9245,0.0438504
1.92475,0.0205567
1.925,0.00626223
1.92525,0.00335291
1.9255,-0.00602606
1.92575,-0.00486028
1.926,-0.00746441
1.92625,-0.00196058
1.9265,0.00128767
1.92675,0.00323213
1.927,0.013382
1.92725,0.015046
1.9275,0.0203554
1.92775,0.0168368
1.928,0.0163748
1.92825,-0.000583761
1.9285,-0.0152669
1.92875,-0.0255278
1.929,-0.0464094
1.92925,-0.0740351
1.9295,-0.0917608
1.92975,-0.124101
1.93,-0.140502
1.93025,-0.169108
1.9305,-0.185107
1.93075,-0.197585
1.931,-0.214798
1.93125,-0.207779
1.9315,-0.206061
1.93175,-0.197181
1.932,-0.181287
1.93225,-0.152202
1.9325,-0.128177
1.93275,-0.0920838
1.933,-0.0544528
1.93325,-0.00591776
1.9335,0.0293414
1.93375,0.0746057
1.934,0.106054
1.93425,0.140161
1.9345,0.173666
1.93475,0.195876
1.935,0.212207
1.93525,0.218293
1.9355,0.226085
1.93575,0.212257
1.936,0.208689
1.93625,0.18713
1.9365,0.169129
1.93675,0.151581
1.937,0.126026
1.93725,0.0987725
1.9375,0.0734005
1.93775,0.046936
1.938,0.0328007
1.93825,0.0180075
1.9385,0.00310647
1.93875,-0.00855629
1.939,-0.00515764
1.93925,-0.00473149
1.9395,-0.00491654
1.93975,-0.00419736
1.94,0.0012514
1.94025,0.00768024
1.9405,0.0171007
1.94075,0.0206834
1.941,0.0157858
1.94125,0.014876
1.9415,0.00810923
1.94175,-0.00209688
1.942,-0.021444
1.94225,-0.0430266
1.9425,-0.0621595
1.94275,-0.0901516
1.943,-0.107986
1.94325,-0.139021
1.9435,-0.155616
1.94375,-0.184882
1.944,-0.200243
1.94425,-0.205388
1.9445,-0.215307
1.94475,-0.208878
1.945,-0.201601
1.94525,-0.180872
1.9455,-0.164261
1.94575,-0.134925
1.946,-0.0962608
1.94625,-0.0590809
1.9465,-0.0254174
1.94675,0.0188152
1.947,0.0552149
1.94725,0.0970159
1.9475,0.136578
1.94775,0.16158
1.948,0.190762
1.94825,0.202485
1.9485,0.212953
1.94875,0.21861
1.949,0.223178
1.94925,0.20703
1.9495,0.195599
1.94975,0.175782
1.95,0.152447
1.95025,0.129575
1.9505,0.110047
1.95075,0.0801301
1.951,0.0602272
1.95125,0.0370518
1.9515,0.0251038
1.95175,0.00740552
1.952,-0.00410308
1.95225,-0.01132
1.9525,-0.00398519
1.95275,-0.00667505
1.953,-0.00200553
1.95325,-0.000886337
1.9535,0.0136907
1.95375,0.0123711
1.954,0.0171284
1.95425,0.0188675
1.9545,0.0136803
1.95475,0.0134574
1.955,0.00271677
1.95525,-0.0172413
1.9555,-0.0303879
1.95575,-0.0579196
1.956,-0.0824441
1.95625,-0.101695
1.9565,-0.126993
1.95675,-0.147375
1.957,-0.176085
1.95725,-0.191822
1.9575,-0.204449
1.95775,-0.209115
1.958,-0.213727
1.95825,-0.20715
1.9585,-0.193374
1.95875,-0.168647
1.959,-0.143908
1.95925,-0.106737
1.9595,-0.070832
1.95975,-0.03384
1.96,0.0049539
1.96025,0.0431391
1.9605,0.083194
1.96075,0.12185
1.961,0.153141
1.96125,0.182729
1.9615,0.206688
1.96175,0.212027
1.962,0.225533
1.96225,0.222779
1.9625,0.21446
1.96275,0.203884
1.963,0.183951
1.96325,0.16802
1.9635,0.143712
1.96375,0.118232
1.964,0.0912006
1.96425,0.0663533
1.9645,0.0445722
1.96475,0.029601
1.965,0.0147972
1.96525,0.00677876
1.9655,-0.00753955
1.96575,-0.00725444
1.966,-0.00552949
1.96625,-0.000541131
1.9665,0.00433452
1.96675,0.0130869
1.967,0.0112832
1.96725,0.0197073
1.9675,0.0177023
1.96775,0.0201247
1.968,0.0142827
1.96825,0.00331647
1.9685,-0.0037228
1.96875,-0.0225602
1.969,-0.0441191
1.96925,-0.06308
1.9695,-0.0895935
1.96975,-0.114392
1.97,-0.140891
1.97025,-0.162185
1.9705,-0.186019
1.97075,-0.200014
1.971,-0.207605
1.97125,-0.206654
1.9715,-0.202255
1.97175,-0.192492
1.972,-0.173816
1.97225,-0.153462
1.9725,-0.118604
1.97275,-0.0811844
1.973,-0.0483768
1.97325,-0.00604057
1.9735,0.0365118
1.97375,0.0808655
1.974,0.111558
1.97425,0.145536
1.9745,0.177651
1.97475,0.197563
1.975,0.219582
1.97525,0.223093
1.9755,0.227431
1.97575,0.219787
1.976,0.214648
1.97625,0.201129
1.9765,0.178374
1.97675,0.156102
1.977,0.127118
1.97725,0.104758
1.9775,0.0811484
1.97775,0.0577581
1.978,0.0392022
1.97825,0.0185004
1.9785,0.0101496
1.97875,0.00563675
1.979,-0.00264481
1.97925,0.00169627
1.9795,0.00541494
1.97975,0.00226394
1.98,0.00942119
1.98025,0.0150042
1.9805,0.0189299
1.98075,0.0239571
1.981,0.0225511
1.98125,0.0264339
1.9815,0.0180319
1.98175,0.00571447
1.982,-0.0101576
1.98225,-0.0348828
1.9825,-0.0581944
1.98275,-0.0800894
1.983,-0.107613
1.98325,-0.125514
1.9835,-0.154315
1.98375,-0.173693
1.984,-0.188015
1.98425,-0.194624
1.9845,-0.197805
1.98475,-0.19685
1.985,-0.189724
1.98525,-0.171089
1.9855,-0.154482
1.98575,-0.127101
1.986,-0.0837539
1.98625,-0.0511572
1.9865,-0.00605426
1.98675,0.02963
1.987,0.0759816
1.98725,0.108955
1.9875,0.147023
1.98775,0.176774
1.988,0.202087
1.98825,0.219527
1.9885,0.236619
1.98875,0.240729
1.989,0.232936
1.98925,0.222234
1.9895,0.206541
1.98975,0.192088
1.99,0.168848
1.99025,0.148438
1.9905,0.116205
1.99075,0.100245
1.991,0.0703698
1.99125,0.0566564
1.9915,0.0330686
1.99175,0.0251997
1.992,0.0127006
1.99225,0.0131797
1.9925,0.0131321
1.99275,0.0102162
1.993,0.0144432
1.99325,0.02216
1.9935,0.0260738
1.99375,0.032922
1.994,0.0384542
1.99425,0.0338457
1.9945,0.0369836
1.99475,0.0264438
1.995,0.0215936
1.99525,0.00354571
1.9955,-0.0127948
1.99575,-0.0358355
1.996,-0.0579991
1.99625,-0.0788369
1.9965,-0.102206
1.99675,-0.133046
1.997,-0.149446
1.99725,-0.172321
1.9975,-0.184357
1.99775,-0.183268
1.998,-0.190307
1.99825,-0.176124
1.9985,-0.166582
1.99875,-0.149586
1.999,-0.114482
1.99925,-0.0840802
1.9995,-0.0509667
