Time (s),Channel 1 (V)
0,0.0345991
0.00025,0.0659572
0.0005,0.0989567
0.00075,0.133815
0.001,0.165118
0.00125,0.19009
0.0015,0.211721
0.00175,0.23338
0.002,0.244368
0.00225,0.246299
0.0025,0.247922
0.00275,0.249519
0.003,0.236677
0.00325,0.233062
0.0035,0.217945
0.00375,0.197356
0.004,0.177468
0.00425,0.154193
0.0045,0.130469
0.00475,0.111936
0.005,0.0953939
0.00525,0.0736018
0.0055,0.0561018
0.00575,0.0481657
0.006,0.035693
0.00625,0.0289407
0.0065,0.0329195
0.00675,0.0320778
0.007,0.0297248
0.00725,0.0374944
0.0075,0.0361107
0.00775,0.0466478
0.008,0.0513431
0.00825,0.0596707
0.0085,0.0560945
0.00875,0.0641461
0.009,0.054082
0.00925,0.0558455
0.0095,0.0471722
0.00975,0.0375303
0.01,0.0216237
0.01025,0.00392668
0.0105,-0.0147183
0.01075,-0.0367198
0.011,-0.0481923
0.01125,-0.0759155
0.0115,-0.0999718
0.01175,-0.116312
0.012,-0.126882
0.01225,-0.141841
0.0125,-0.159788
0.01275,-0.163012
0.013,-0.162183
0.01325,-0.159376
0.0135,-0.150551
0.01375,-0.128993
0.014,-0.109913
0.01425,-0.0854238
0.0145,-0.0582384
0.01475,-0.0321234
0.015,0.00295798
0.01525,0.0416545
0.0155,0.0734871
0.01575,0.111404
0.016,0.144392
0.01625,0.177977
0.0165,0.203195
0.01675,0.235743
0.017,0.249706
0.01725,0.271016
0.0175,0.273979
0.01775,0.282035
0.018,0.282018
0.01825,0.282366
0.0185,0.264534
0.01875,0.249313
0.019,0.240773
0.01925,0.222834
0.0195,0.200146
0.01975,0.175846
0.02,0.154453
0.02025,0.132934
0.0205,0.119822
0.02075,0.101616
0.021,0.0849502
0.02125,0.0823586
0.0215,0.0715642
0.02175,0.069383
0.022,0.0641927
0.02225,0.0656302
0.0225,0.0737564
0.02275,0.0781973
0.023,0.0835355
0.02325,0.0871277
0.0235,0.0942621
0.02375,0.0964361
0.024,0.0985698
0.02425,0.0955574
0.0245,0.0957266
0.02475,0.0894346
0.025,0.0786137
0.02525,0.0730572
0.0255,0.0537691
0.02575,0.0382899
0.026,0.0176045
0.02625,-0.0010821
0.0265,-0.0217405
0.02675,-0.0425227
0.027,-0.0586619
0.02725,-0.0826915
0.0275,-0.0997701
0.02775,-0.113003
0.028,-0.117402
0.02825,-0.122312
0.0285,-0.120423
0.02875,-0.115204
0.029,-0.100352
0.02925,-0.0824898
0.0295,-0.0625043
0.02975,-0.0286901
0.03,0.000562268
0.03025,0.0290861
0.0305,0.0719634
0.03075,0.0997025
0.031,0.144773
0.03125,0.171825
0.0315,0.209233
0.03175,0.24124
0.032,0.272446
0.03225,0.287217
0.0325,0.310424
0.03275,0.32495
0.033,0.327906
0.03325,0.330451
0.0335,0.334924
0.03375,0.326383
0.034,0.309277
0.03425,0.298629
0.0345,0.278866
0.03475,0.262326
0.035,0.237315
0.03525,0.215256
0.0355,0.197879
0.03575,0.175364
0.036,0.161335
0.03625,0.143976
0.0365,0.138553
0.03675,0.125271
0.037,0.123674
0.03725,0.119173
0.0375,0.115364
0.03775,0.124789
0.038,0.123456
0.03825,0.127861
0.0385,0.1333
0.03875,0.146389
0.039,0.148266
0.03925,0.158007
0.0395,0.153001
0.03975,0.152963
0.04,0.154912
0.04025,0.149201
0.0405,0.133415
0.04075,0.126749
0.041,0.10597
0.04125,0.0939402
0.0415,0.0683534
0.04175,0.0470604
0.042,0.0340569
0.04225,0.00565934
0.0425,-0.00547422
0.04275,-0.0304849
0.043,-0.0401619
0.04325,-0.0542165
0.0435,-0.0528146
0.04375,-0.0578944
0.044,-0.0499777
0.04425,-0.0435087
0.0445,-0.023231
0.04475,-0.0021473
0.045,0.0188906
0.04525,0.0440393
0.0455,0.0752603
0.04575,0.11756
0.046,0.145728
0.04625,0.190914
0.0465,0.219659
0.04675,0.258006
0.047,0.288434
0.04725,0.317256
0.0475,0.345586
0.04775,0.370685
0.048,0.385718
0.04825,0.396795
0.0485,0.398064
0.04875,0.398705
0.049,0.39965
0.04925,0.386232
0.0495,0.381245
0.04975,0.357323
0.05,0.338362
0.05025,0.321362
0.0505,0.307758
0.05075,0.281195
0.051,0.258898
0.05125,0.244004
0.0515,0.233861
0.05175,0.219708
0.052,0.207878
0.05225,0.202268
0.0525,0.200775
0.05275,0.198781
0.053,0.19785
0.05325,0.19642
0.0535,0.207163
0.05375,0.215585
0.054,0.221089
0.05425,0.224953
0.0545,0.228748
0.05475,0.23167
0.055,0.230209
0.05525,0.233902
0.0555,0.222933
0.05575,0.218363
0.056,0.211594
0.05625,0.20046
0.0565,0.178245
0.05675,0.166355
0.057,0.147256
0.05725,0.12058
0.0575,0.101101
0.05775,0.0814103
0.058,0.0665491
0.05825,0.0493479
0.0585,0.0432206
0.05875,0.0324963
0.059,0.0238284
0.05925,0.0313152
0.0595,0.037991
0.05975,0.0533864
0.06,0.0635094
0.06025,0.0889156
0.0605,0.114612
0.06075,0.148241
0.061,0.186226
0.06125,0.220428
0.0615,0.256665
0.06175,0.293635
0.062,0.329131
0.06225,0.366103
0.0625,0.397935
0.06275,0.422289
0.063,0.444474
0.06325,0.466659
0.0635,0.482493
0.06375,0.48925
0.064,0.497653
0.06425,0.494248
0.0645,0.481609
0.06475,0.480899
0.065,0.457676
0.06525,0.448335
0.0655,0.423321
0.06575,0.411252
0.066,0.387058
0.06625,0.366624
0.0665,0.351869
0.06675,0.330703
0.067,0.320553
0.06725,0.307027
0.0675,0.300949
0.06775,0.291184
0.068,0.286193
0.06825,0.293812
0.0685,0.29299
0.06875,0.295302
0.069,0.30471
0.06925,0.314291
0.0695,0.31625
0.06975,0.323014
0.07,0.332093
0.07025,0.330026
0.0705,0.330956
0.07075,0.32965
0.071,0.327589
0.07125,0.311902
0.0715,0.298898
0.07175,0.287106
0.072,0.269161
0.07225,0.253326
0.0725,0.230496
0.07275,0.212755
0.073,0.193369
0.07325,0.171659
0.0735,0.16374
0.07375,0.144483
0.074,0.133075
0.07425,0.126492
0.0745,0.131052
0.07475,0.136308
0.075,0.14504
0.07525,0.159085
0.0755,0.185435
0.07575,0.210975
0.076,0.237981
0.07625,0.269463
0.0765,0.305883
0.07675,0.335363
0.077,0.379816
0.07725,0.419085
0.0775,0.449
0.07775,0.48108
0.078,0.509675
0.07825,0.542768
0.0785,0.560947
0.07875,0.583837
0.079,0.593188
0.07925,0.597286
0.0795,0.597179
0.07975,0.596667
0.08,0.584468
0.08025,0.577628
0.0805,0.564976
0.08075,0.547631
0.081,0.522204
0.08125,0.508944
0.0815,0.481138
0.08175,0.462232
0.082,0.451776
0.08225,0.429703
0.0825,0.426091
0.08275,0.413675
0.083,0.403449
0.08325,0.403142
0.0835,0.400185
0.08375,0.400245
0.084,0.402394
0.08425,0.414601
0.0845,0.415715
0.08475,0.424287
0.085,0.431501
0.08525,0.434837
0.0855,0.437919
0.08575,0.439719
0.086,0.437347
0.08625,0.434268
0.0865,0.431006
0.08675,0.417514
0.087,0.408951
0.08725,0.395201
0.0875,0.375677
0.08775,0.353795
0.088,0.337214
0.08825,0.319906
0.0885,0.294295
0.08875,0.278423
0.089,0.268223
0.08925,0.250962
0.0895,0.241841
0.08975,0.240115
0.09,0.246893
0.09025,0.254561
0.0905,0.263446
0.09075,0.278976
0.091,0.299607
0.09125,0.335908
0.0915,0.357476
0.09175,0.399394
0.092,0.426795
0.09225,0.469192
0.0925,0.501611
0.09275,0.544247
0.093,0.575513
0.09325,0.614875
0.0935,0.641154
0.09375,0.663062
0.094,0.684267
0.09425,0.703403
0.0945,0.705263
0.09475,0.713155
0.095,0.709524
0.09525,0.70996
0.0955,0.700644
0.09575,0.687696
0.096,0.664695
0.09625,0.650994
0.0965,0.633279
0.09675,0.613218
0.097,0.5925
0.09725,0.565339
0.0975,0.554526
0.09775,0.542463
0.098,0.532643
0.09825,0.521373
0.0985,0.517235
0.09875,0.508464
0.099,0.507812
0.09925,0.514831
0.0995,0.519672
0.09975,0.530105
0.1,0.529542
0.10025,0.540868
0.1005,0.543186
0.10075,0.549406
0.101,0.548822
0.10125,0.557529
0.1015,0.55254
0.10175,0.547942
0.102,0.541305
0.10225,0.528652
0.1025,0.509177
0.10275,0.491441
0.103,0.472605
0.10325,0.456119
0.1035,0.434261
0.10375,0.41244
0.104,0.392041
0.10425,0.384282
0.1045,0.371405
0.10475,0.352213
0.105,0.353913
0.10525,0.351744
0.1055,0.350376
0.10575,0.365341
0.106,0.377458
0.10625,0.394156
0.1065,0.427019
0.10675,0.447659
0.107,0.481466
0.10725,0.521519
0.1075,0.551627
0.10775,0.587053
0.108,0.628803
0.10825,0.668062
0.1085,0.701884
0.10875,0.726809
0.109,0.750405
0.10925,0.773184
0.1095,0.796288
0.10975,0.804137
0.11,0.817308
0.11025,0.814061
0.1105,0.810404
0.11075,0.806958
0.111,0.790797
0.11125,0.778827
0.1115,0.762132
0.11175,0.736707
0.112,0.715417
0.11225,0.699263
0.1125,0.679303
0.11275,0.660665
0.113,0.642599
0.11325,0.630233
0.1135,0.620354
0.11375,0.611403
0.114,0.609273
0.11425,0.612032
0.1145,0.604957
0.11475,0.616679
0.115,0.620912
0.11525,0.619047
0.1155,0.634038
0.11575,0.636179
0.116,0.640225
0.11625,0.640046
0.1165,0.644493
0.11675,0.644918
0.117,0.644798
0.11725,0.638376
0.1175,0.622726
0.11775,0.611776
0.118,0.592834
0.11825,0.575278
0.1185,0.561016
0.11875,0.532382
0.119,0.512062
0.11925,0.498241
0.1195,0.472451
0.11975,0.465197
0.12,0.447033
0.12025,0.439597
0.1205,0.433758
0.12075,0.433975
0.121,0.444418
0.12125,0.45576
0.1215,0.471343
0.12175,0.490294
0.122,0.523013
0.12225,0.550121
0.1225,0.580742
0.12275,0.614104
0.123,0.65478
0.12325,0.689008
0.1235,0.72314
0.12375,0.763743
0.124,0.79201
0.12425,0.823512
0.1245,0.839995
0.12475,0.861984
0.125,0.87904
0.12525,0.886562
0.1255,0.888705
0.12575,0.890112
0.126,0.880218
0.12625,0.874716
0.1265,0.853281
0.12675,0.840756
0.127,0.821387
0.12725,0.804388
0.1275,0.775196
0.12775,0.754774
0.128,0.736862
0.12825,0.719252
0.1285,0.702082
0.12875,0.692936
0.129,0.68542
0.12925,0.674519
0.1295,0.66965
0.12975,0.675098
0.13,0.67697
0.13025,0.676422
0.1305,0.683153
0.13075,0.690056
0.131,0.698759
0.13125,0.696559
0.1315,0.705704
0.13175,0.706353
0.132,0.706352
0.13225,0.701382
0.1325,0.699105
0.13275,0.684323
0.133,0.673097
0.13325,0.653643
0.1335,0.642943
0.13375,0.615609
0.134,0.599238
0.13425,0.573578
0.1345,0.554289
0.13475,0.540327
0.135,0.521484
0.13525,0.506634
0.1355,0.492506
0.13575,0.481766
0.136,0.482503
0.13625,0.486539
0.1365,0.488015
0.13675,0.500506
0.137,0.518082
0.13725,0.54546
0.1375,0.569355
0.13775,0.604439
0.138,0.641172
0.13825,0.6669
0.1385,0.706619
0.13875,0.739626
0.139,0.781082
0.13925,0.809296
0.1395,0.843114
0.13975,0.863283
0.14,0.889761
0.14025,0.904785
0.1405,0.915212
0.14075,0.914502
0.141,0.91688
0.14125,0.911763
0.1415,0.903861
0.14175,0.893938
0.142,0.877442
0.14225,0.861697
0.1425,0.836226
0.14275,0.81849
0.143,0.793575
0.14325,0.773681
0.1435,0.748056
0.14375,0.734097
0.144,0.722392
0.14425,0.711028
0.1445,0.697347
0.14475,0.687958
0.145,0.691913
0.14525,0.686337
0.1455,0.690216
0.14575,0.692136
0.146,0.697611
0.14625,0.699405
0.1465,0.70652
0.14675,0.705155
0.147,0.707136
0.14725,0.714592
0.1475,0.704874
0.14775,0.70801
0.148,0.698063
0.14825,0.678923
0.1485,0.665641
0.14875,0.652124
0.149,0.633458
0.14925,0.607192
0.1495,0.585156
0.14975,0.56639
0.15,0.545628
0.15025,0.527368
0.1505,0.501379
0.15075,0.493928
0.151,0.480524
0.15125,0.47359
0.1515,0.477552
0.15175,0.477008
0.152,0.489514
0.15225,0.500211
0.1525,0.520056
0.15275,0.540726
0.153,0.573208
0.15325,0.606644
0.1535,0.634869
0.15375,0.669361
0.154,0.706251
0.15425,0.735553
0.1545,0.774216
0.15475,0.799147
0.155,0.828104
0.15525,0.850266
0.1555,0.870609
0.15575,0.885384
0.156,0.893954
0.15625,0.887625
0.1565,0.891936
0.15675,0.876392
0.157,0.867222
0.15725,0.852137
0.1575,0.831025
0.15775,0.811674
0.158,0.796117
0.15825,0.771581
0.1585,0.740849
0.15875,0.720702
0.159,0.704517
0.15925,0.684154
0.1595,0.670962
0.15975,0.664469
0.16,0.655168
0.16025,0.643114
0.1605,0.645762
0.16075,0.641112
0.161,0.645935
0.16125,0.644637
0.1615,0.648748
0.16175,0.651188
0.162,0.659556
0.16225,0.663208
0.1625,0.660679
0.16275,0.654437
0.163,0.653867
0.16325,0.644892
0.1635,0.633468
0.16375,0.618036
0.164,0.601506
0.16425,0.584601
0.1645,0.555197
0.16475,0.535937
0.165,0.509223
0.16525,0.494599
0.1655,0.471595
0.16575,0.446293
0.166,0.429202
0.16625,0.420595
0.1665,0.405728
0.16675,0.402404
0.167,0.398786
0.16725,0.404986
0.1675,0.421405
0.16775,0.438035
0.168,0.450012
0.16825,0.479699
0.1685,0.505997
0.16875,0.539116
0.169,0.575608
0.16925,0.604114
0.1695,0.638602
0.16975,0.667261
0.17,0.698337
0.17025,0.731858
0.1705,0.752387
0.17075,0.768157
0.171,0.783461
0.17125,0.795054
0.1715,0.797726
0.17175,0.796635
0.172,0.799215
0.17225,0.77918
0.1725,0.770854
0.17275,0.750222
0.173,0.731808
0.17325,0.710355
0.1735,0.685861
0.17375,0.658262
0.174,0.640245
0.17425,0.618369
0.1745,0.598236
0.17475,0.576092
0.175,0.565161
0.17525,0.552837
0.1755,0.54266
0.17575,0.533981
0.176,0.534025
0.17625,0.53353
0.1765,0.536045
0.17675,0.539258
0.177,0.539359
0.17725,0.547862
0.1775,0.540798
0.17775,0.543487
0.178,0.540708
0.17825,0.540969
0.1785,0.530217
0.17875,0.521103
0.179,0.50644
0.17925,0.487717
0.1795,0.466853
0.17975,0.450218
0.18,0.422841
0.18025,0.405972
0.1805,0.377654
0.18075,0.358474
0.181,0.32849
0.18125,0.316699
0.1815,0.30169
0.18175,0.281333
0.182,0.277984
0.18225,0.2734
0.1825,0.277967
0.18275,0.284884
0.183,0.290907
0.18325,0.306686
0.1835,0.332735
0.18375,0.357369
0.184,0.390319
0.18425,0.419385
0.1845,0.446637
0.18475,0.483736
0.185,0.510753
0.18525,0.542179
0.1855,0.573336
0.18575,0.596165
0.186,0.617765
0.18625,0.635159
0.1865,0.65315
0.18675,0.659717
0.187,0.653671
0.18725,0.653078
0.1875,0.63836
0.18775,0.624629
0.188,0.608055
0.18825,0.587539
0.1885,0.567129
0.18875,0.546051
0.189,0.517651
0.18925,0.491639
0.1895,0.472264
0.18975,0.447508
0.19,0.432881
0.19025,0.412935
0.1905,0.405852
0.19075,0.391227
0.191,0.384327
0.19125,0.374432
0.1915,0.372968
0.19175,0.375617
0.192,0.372058
0.19225,0.3748
0.1925,0.380399
0.19275,0.38136
0.193,0.38721
0.19325,0.380221
0.1935,0.376247
0.19375,0.3727
0.194,0.360298
0.19425,0.350519
0.1945,0.337182
0.19475,0.317574
0.195,0.290517
0.19525,0.270794
0.1955,0.248315
0.19575,0.225664
0.196,0.200681
0.19625,0.176348
0.1965,0.152786
0.19675,0.132537
0.197,0.118259
0.19725,0.103866
0.1975,0.0965445
0.19775,0.0990928
0.198,0.100994
0.19825,0.106886
0.1985,0.12596
0.19875,0.147796
0.199,0.164274
0.19925,0.195415
0.1995,0.218904
0.19975,0.257128
0.2,0.290849
0.20025,0.321698
0.2005,0.354634
0.20075,0.376864
0.201,0.403545
0.20125,0.431381
0.2015,0.448699
0.20175,0.458921
0.202,0.467552
0.20225,0.475017
0.2025,0.47125
0.20275,0.470023
0.203,0.451059
0.20325,0.439115
0.2035,0.418581
0.20375,0.400421
0.204,0.377944
0.20425,0.350629
0.2045,0.323843
0.20475,0.2995
0.205,0.278652
0.20525,0.250938
0.2055,0.235431
0.20575,0.21965
0.206,0.209515
0.20625,0.200603
0.2065,0.189
0.20675,0.189889
0.207,0.185791
0.20725,0.190364
0.2075,0.188054
0.20775,0.192015
0.208,0.193496
0.20825,0.190836
0.2085,0.19253
0.20875,0.19396
0.209,0.183715
0.20925,0.173398
0.2095,0.165081
0.20975,0.154325
0.21,0.135811
0.21025,0.118484
0.2105,0.0925563
0.21075,0.0646654
0.211,0.0468981
0.21125,0.0234194
0.2115,-0.00534006
0.21175,-0.033294
0.212,-0.0481179
0.21225,-0.0648835
0.2125,-0.0799803
0.21275,-0.0857195
0.213,-0.0964979
0.21325,-0.0980203
0.2135,-0.0896202
0.21375,-0.0790628
0.214,-0.0597787
0.21425,-0.0447145
0.2145,-0.0133462
0.21475,0.0164465
0.215,0.0473257
0.21525,0.0713905
0.2155,0.105365
0.21575,0.138582
0.216,0.167884
0.21625,0.200732
0.2165,0.219154
0.21675,0.242913
0.217,0.264461
0.21725,0.278208
0.2175,0.279541
0.21775,0.283166
0.218,0.281255
0.21825,2.68E-01
0.2185,0.256279
0.21875,0.241532
0.219,0.221021
0.21925,0.198219
0.2195,0.17038
0.21975,0.142106
0.22,0.124421
0.22025,0.0942001
0.2205,0.0781074
0.22075,0.0574535
0.221,0.0344451
0.22125,0.0229248
0.2215,0.0109139
0.22175,0.00847814
0.222,0.000738499
0.22225,-0.0064301
0.2225,-0.00303147
0.22275,-0.00624812
0.223,0.000174285
0.22325,0.00571651
0.2235,0.00258292
0.22375,0.0055825
0.224,0.00234528
0.22425,-0.0051107
0.2245,-0.0107031
0.22475,-0.0124785
0.225,-0.026224
0.22525,-0.0401449
0.2255,-0.0627407
0.22575,-0.0777819
0.226,-0.107754
0.22625,-0.125447
0.2265,-0.149458
0.22675,-0.181363
0.227,-0.204699
0.22725,-0.219666
0.2275,-0.240886
0.22775,-0.259685
0.228,-0.272474
0.22825,-0.278772
0.2285,-0.279253
0.22875,-0.271639
0.229,-0.267032
0.22925,-0.249989
0.2295,-0.229276
0.22975,-0.20984
0.23,-0.178137
0.23025,-0.151448
0.2305,-0.121478
0.23075,-0.0882947
0.231,-0.0597049
0.23125,-0.0245994
0.2315,0.00557997
0.23175,0.0387685
0.232,0.0555727
0.23225,0.0800677
0.2325,0.0953378
0.23275,0.0988314
0.233,0.111408
0.23325,0.109197
0.2335,0.0965782
0.23375,0.0899888
0.234,0.0754109
0.23425,0.0573932
0.2345,0.0350893
0.23475,0.0109292
0.235,-0.013054
0.23525,-0.036073
0.2355,-0.0605423
0.23575,-0.0818882
0.236,-0.0969394
0.23625,-0.12271
0.2365,-0.134192
0.23675,-0.142852
0.237,-0.159089
0.23725,-0.159881
0.2375,-0.164789
0.23775,-0.160597
0.238,-0.159412
0.23825,-0.159933
0.2385,-0.15807
0.23875,-0.154161
0.239,-0.155978
0.23925,-0.154414
0.2395,-0.15944
0.23975,-0.161892
0.24,-0.170804
0.24025,-0.173692
0.2405,-0.18778
0.24075,-0.20261
0.241,-0.221007
0.24125,-0.245836
0.2415,-0.262656
0.24175,-0.293712
0.242,-0.31092
0.24225,-0.338286
0.2425,-0.359079
0.24275,-0.375597
0.243,-0.392556
0.24325,-0.409775
0.2435,-0.418686
0.24375,-0.417037
0.244,-0.417689
0.24425,-0.410596
0.2445,-0.400152
0.24475,-0.379885
0.245,-0.36145
0.24525,-0.332751
0.2455,-0.304606
0.24575,-0.271718
0.246,-0.241856
0.24625,-0.203483
0.2465,-0.17429
0.24675,-0.145576
0.247,-0.113192
0.24725,-0.0816329
0.2475,-0.0573753
0.24775,-0.0442003
0.248,-0.0268848
0.24825,-0.0198732
0.2485,-0.0184414
0.24875,-0.018219
0.249,-0.0261869
0.24925,-0.0431871
0.2495,-0.0598717
0.24975,-0.0743691
0.25,-0.0921409
0.25025,-0.121716
0.2505,-0.142849
0.25075,-0.165169
0.251,-0.182648
0.25125,-0.206422
0.2515,-0.2198
0.25175,-0.239315
0.252,-0.253472
0.25225,-0.265945
0.2525,-0.269818
0.25275,-0.275501
0.253,-0.269196
0.25325,-0.277218
0.2535,-0.267577
0.25375,-0.270308
0.254,-0.259781
0.25425,-0.263112
0.2545,-0.256479
0.25475,-0.253194
0.255,-0.260045
0.25525,-0.25988
0.2555,-0.270285
0.25575,-0.282077
0.256,-0.295308
0.25625,-0.311316
0.2565,-0.329719
0.25675,-0.343848
0.257,-0.367126
0.25725,-0.39221
0.2575,-0.416497
0.25775,-0.433692
0.258,-0.456848
0.25825,-0.476826
0.2585,-0.482748
0.25875,-0.500369
0.259,-0.498417
0.25925,-0.501075
0.2595,-0.499085
0.25975,-0.489017
0.26,-0.467179
0.26025,-0.448055
0.2605,-0.424258
0.26075,-0.397561
0.261,-0.361856
0.26125,-0.335243
0.2615,-0.298217
0.26175,-0.261775
0.262,-0.227588
0.26225,-0.194156
0.2625,-0.166171
0.26275,-0.140034
0.263,-0.121163
0.26325,-0.101771
0.2635,-0.0876812
0.26375,-0.0813171
0.264,-0.0773479
0.26425,-0.0843495
0.2645,-0.0961497
0.26475,-0.100409
0.265,-0.122242
0.26525,-0.138249
0.2655,-0.15468
0.26575,-0.178277
0.266,-0.202397
0.26625,-0.228046
0.2665,-0.242176
0.26675,-0.267721
0.267,-0.283492
0.26725,-0.294017
0.2675,-0.303678
0.26775,-0.306409
0.268,-0.310914
0.26825,-0.320662
0.2685,-0.315419
0.26875,-0.308494
0.269,-0.312306
0.26925,-0.301446
0.2695,-0.297809
0.26975,-0.296682
0.27,-0.293942
0.27025,-0.291708
0.2705,-0.295875
0.27075,-0.292639
0.271,-0.298286
0.27125,-0.314517
0.2715,-0.328029
0.27175,-0.338483
0.272,-0.363435
0.27225,-0.38167
0.2725,-0.399351
0.27275,-0.424743
0.273,-0.440802
0.27325,-0.468916
0.2735,-0.483872
0.27375,-0.493658
0.274,-0.51237
0.27425,-0.513109
0.2745,-0.521135
0.27475,-0.508973
0.275,-0.506908
0.27525,-0.49533
0.2755,-0.470107
0.27575,-0.453137
0.276,-0.417375
0.27625,-0.387981
0.2765,-0.358783
0.27675,-0.322406
0.277,-0.280686
0.27725,-0.245087
0.2775,-0.210472
0.27775,-0.184564
0.278,-0.151795
0.27825,-0.125337
0.2785,-0.106985
0.27875,-0.0906577
0.279,-0.0797177
0.27925,-0.0766755
0.2795,-0.0698899
0.27975,-0.073861
0.28,-0.0878844
0.28025,-0.10491
0.2805,-0.119164
0.28075,-0.132662
0.281,-0.15336
0.28125,-0.177379
0.2815,-0.198423
0.28175,-0.218685
0.282,-0.240095
0.28225,-0.254584
0.2825,-0.266546
0.28275,-0.273296
0.283,-0.280913
0.28325,-0.292962
0.2835,-0.293827
0.28375,-0.291858
0.284,-0.282767
0.28425,-0.284889
0.2845,-0.280713
0.28475,-0.269449
0.285,-0.260358
0.28525,-0.262193
0.2855,-0.258235
0.28575,-0.260028
0.286,-0.253451
0.28625,-0.265593
0.2865,-0.266628
0.28675,-0.279482
0.287,-0.299455
0.28725,-0.310012
0.2875,-0.327767
0.28775,-0.347245
0.288,-0.370297
0.28825,-0.394934
0.2885,-0.410288
0.28875,-0.428187
0.289,-0.443253
0.28925,-0.456524
0.2895,-0.463385
0.28975,-0.462425
0.29,-0.466052
0.29025,-0.459019
0.2905,-0.449383
0.29075,-0.429902
0.291,-0.404743
0.29125,-0.386313
0.2915,-0.351144
0.29175,-0.314485
0.292,-0.285099
0.29225,-0.244382
0.2925,-0.213051
0.29275,-0.170462
0.293,-0.138916
0.29325,-0.106062
0.2935,-0.080952
0.29375,-0.0487968
0.294,-0.0307932
0.29425,-0.0210974
0.2945,-0.0124209
0.29475,-0.00297726
0.295,-0.00901506
0.29525,-0.00983433
0.2955,-0.0268847
0.29575,-0.0387778
0.296,-0.0495034
0.29625,-0.077467
0.2965,-0.092335
0.29675,-0.112653
0.297,-0.134848
0.29725,-0.15394
0.2975,-0.165624
0.29775,-0.187386
0.298,-0.19744
0.29825,-0.203886
0.2985,-0.209061
0.29875,-0.210359
0.299,-0.212832
0.29925,-0.212272
0.2995,-0.201953
0.29975,-0.198608
0.3,-0.19165
0.30025,-0.181192
0.3005,-0.182448
0.30075,-0.172423
0.301,-0.169159
0.30125,-0.168997
0.3015,-0.172164
0.30175,-0.178335
0.302,-0.188255
0.30225,-0.197709
0.3025,-0.21172
0.30275,-0.225314
0.303,-0.252827
0.30325,-0.271647
0.3035,-0.284547
0.30375,-0.304717
0.304,-0.323538
0.30425,-0.347299
0.3045,-0.351152
0.30475,-0.363676
0.305,-0.366827
0.30525,-0.376906
0.3055,-0.365785
0.30575,-0.3577
0.306,-0.345732
0.30625,-0.325512
0.3065,-0.302854
0.30675,-0.266515
0.307,-0.233354
0.30725,-0.207212
0.3075,-0.167372
0.30775,-0.129043
0.308,-0.0870128
0.30825,-0.0589517
0.3085,-0.0245779
0.30875,0.00522604
0.309,0.0371889
0.30925,0.0570874
0.3095,0.0792585
0.30975,0.0839452
0.31,0.0956588
0.31025,0.0991997
0.3105,0.0935052
0.31075,0.0854275
0.311,0.0754521
0.31125,0.0641793
0.3115,0.0451667
0.31175,0.029757
0.312,0.000295967
0.31225,-0.011414
0.3125,-0.0319674
0.31275,-0.0527003
0.313,-0.0624186
0.31325,-0.0755155
0.3135,-0.09056
0.31375,-0.0983145
0.314,-0.0988278
0.31425,-0.106036
0.3145,-0.0996961
0.31475,-0.0922498
0.315,-0.0860362
0.31525,-0.0842917
0.3155,-0.0736327
0.31575,-0.0729662
0.316,-0.0604422
0.31625,-0.0642283
0.3165,-0.0553558
0.31675,-0.0617553
0.317,-0.0680935
0.31725,-0.0731702
0.3175,-0.0787262
0.31775,-0.087703
0.318,-0.107714
0.31825,-0.129431
0.3185,-0.139446
0.31875,-0.160871
0.319,-0.188796
0.31925,-0.20271
0.3195,-0.220181
0.31975,-0.234821
0.32,-0.242547
0.32025,-0.251288
0.3205,-0.255548
0.32075,-0.260989
0.321,-0.245716
0.32125,-0.240831
0.3215,-0.219961
0.32175,-0.196358
0.322,-0.171758
0.32225,-0.139389
0.3225,-0.104746
0.32275,-0.072154
0.323,-0.0359918
0.32325,0.00131121
0.3235,0.0397624
0.32375,0.0716911
0.324,0.111305
0.32425,0.136856
0.3245,0.162616
0.32475,0.181097
0.325,0.200281
0.32525,0.203195
0.3255,0.211017
0.32575,0.214666
0.326,0.209354
0.32625,0.198867
0.3265,0.185474
0.32675,0.16659
0.327,0.147037
0.32725,0.127323
0.3275,0.104604
0.32775,0.0865944
0.328,0.073405
0.32825,0.0510454
0.3285,0.0420357
0.32875,0.0324611
0.329,0.0179546
0.32925,0.0141297
0.3295,0.0142234
0.32975,0.00972936
0.33,0.0104654
0.33025,0.0146857
0.3305,0.0217148
0.33075,0.0266468
0.331,0.0320774
0.33125,0.0416398
0.3315,0.048647
0.33175,0.0485913
0.332,0.0492079
0.33225,0.0496266
0.3325,0.0400596
0.33275,0.0305165
0.333,0.0251081
0.33325,0.00741044
0.3335,-0.00557734
0.33375,-0.0289866
0.334,-0.0470807
0.33425,-0.0654723
0.3345,-0.0871269
0.33475,-0.108692
0.335,-0.121211
0.33525,-0.133519
0.3355,-0.14341
0.33575,-0.148345
0.336,-0.148518
0.33625,-0.144875
0.3365,-0.139956
0.33675,-0.122957
0.337,-0.106486
0.33725,-0.0819544
0.3375,-0.058999
0.33775,-0.0225067
0.338,0.0070072
0.33825,0.0461472
0.3385,0.0846459
0.33875,0.11979
0.339,0.157052
0.33925,0.185976
0.3395,0.223503
0.33975,0.247552
0.34,0.271297
0.34025,0.283905
0.3405,0.29917
0.34075,0.304317
0.341,0.310636
0.34125,0.301186
0.3415,0.300185
0.34175,0.286767
0.342,0.266722
0.34225,0.249139
0.3425,0.231072
0.34275,0.211157
0.343,0.189969
0.34325,0.168245
0.3435,0.149893
0.34375,0.135451
0.344,0.124557
0.34425,0.115442
0.3445,0.108338
0.34475,0.0978692
0.345,0.094073
0.34525,0.100435
0.3455,0.0976076
0.34575,0.106019
0.346,0.111451
0.34625,0.124163
0.3465,0.122431
0.34675,0.130081
0.347,0.137041
0.34725,0.139509
0.3475,0.136224
0.34775,0.12826
0.348,0.118991
0.34825,0.115443
0.3485,0.0939721
0.34875,0.0772728
0.349,0.0623966
0.34925,0.0421252
0.3495,0.0219169
0.34975,0.00692694
0.35,-0.0132925
0.35025,-0.0403388
0.3505,-0.0512792
0.35075,-0.062652
0.351,-0.0753745
0.35125,-0.0758709
0.3515,-0.0824451
0.35175,-0.0733414
0.352,-0.0590372
0.35225,-0.0499107
0.3525,-0.0233804
0.35275,-0.00275735
0.353,0.0248554
0.35325,0.0560229
0.3535,0.0990634
0.35375,0.127247
0.354,0.16481
0.35425,0.205853
0.3545,0.237394
0.35475,0.27357
0.355,0.298899
0.35525,0.325228
0.3555,0.340864
0.35575,0.355668
0.356,0.364998
0.35625,0.373495
0.3565,0.366772
0.35675,0.359055
0.357,0.347398
0.35725,0.340185
0.3575,0.317267
0.35775,0.29749
0.358,0.278761
0.35825,0.259119
0.3585,0.24095
0.35875,0.215609
0.359,0.204141
0.35925,0.182494
0.3595,0.166458
0.35975,0.156102
0.36,0.15508
0.36025,0.149173
0.3605,0.145012
0.36075,0.147256
0.361,0.149161
0.36125,0.151362
0.3615,0.162167
0.36175,0.171513
0.362,0.172328
0.36225,0.175497
0.3625,0.175357
0.36275,0.175329
0.363,0.175007
0.36325,0.16731
0.3635,0.152098
0.36375,0.146495
0.364,0.132756
0.36425,0.111197
0.3645,0.0958626
0.36475,0.0708199
0.365,0.0493473
0.36525,0.0261154
0.3655,0.00588246
0.36575,-0.00996087
0.366,-0.0278193
0.36625,-0.0407358
0.3665,-0.0467308
0.36675,-0.0493319
0.367,-0.0480834
0.36725,-0.0423423
0.3675,-0.0315048
0.36775,-0.0116086
0.368,0.00995913
0.36825,0.0400374
0.3685,0.0637324
0.36875,0.0963238
0.369,0.13686
0.36925,0.174505
0.3695,0.202228
0.36975,0.241702
0.37,0.275779
0.37025,0.304271
0.3705,0.327774
0.37075,0.348443
0.371,0.364303
0.37125,0.373873
0.3715,0.38593
0.37175,0.389052
0.372,0.381606
0.37225,0.372364
0.3725,0.353721
0.37275,0.345106
0.373,0.326187
0.37325,0.305207
0.3735,0.282254
0.37375,0.254034
0.374,0.232027
0.37425,0.214723
0.3745,0.197126
0.37475,0.182421
0.375,0.166653
0.37525,0.160013
0.3755,0.155257
0.37575,0.155337
0.376,0.150318
0.37625,0.15182
0.3765,0.157174
0.37675,0.162364
0.377,0.166361
0.37725,0.169177
0.3775,0.168057
0.37775,0.176684
0.378,0.178575
0.37825,0.173258
0.3785,0.165921
0.37875,0.159332
0.379,0.147672
0.37925,0.135869
0.3795,0.114219
0.37975,0.09993
0.38,0.0732306
0.38025,0.0543736
0.3805,0.029663
0.38075,0.0108963
0.381,-0.0127486
0.38125,-0.0311494
0.3815,-0.0450895
0.38175,-0.0566198
0.382,-0.06039
0.38225,-0.0598173
0.3825,-0.0630413
0.38275,-0.0503382
0.383,-0.0406558
0.38325,-0.0193273
0.3835,0.00480593
0.38375,0.0311237
0.384,0.0641112
0.38425,0.0994319
0.3845,0.132283
0.38475,0.170641
0.385,0.202632
0.38525,0.239403
0.3855,0.266522
0.38575,0.296549
0.386,0.318954
0.38625,0.334821
0.3865,0.344222
0.38675,0.35551
0.387,0.356712
0.38725,0.355838
0.3875,0.35348
0.38775,0.341714
0.388,0.323238
0.38825,0.310028
0.3885,0.280069
0.38875,0.26588
0.389,0.241764
0.38925,0.213441
0.3895,0.193462
0.38975,0.174475
0.39,0.159803
0.39025,0.147662
0.3905,0.131534
0.39075,0.125083
0.391,0.114233
0.39125,0.118604
0.3915,0.11146
0.39175,0.116832
0.392,0.123189
0.39225,0.125408
0.3925,0.130201
0.39275,0.130895
0.393,0.13103
0.39325,0.135472
0.3935,0.133849
0.39375,0.126627
0.394,0.123021
0.39425,0.115515
0.3945,0.0987237
0.39475,0.0797138
0.395,0.0618951
0.39525,0.0456972
0.3955,0.0203224
0.39575,-0.000602275
0.396,-0.0231892
0.39625,-0.0461399
0.3965,-0.0603116
0.39675,-0.0811182
0.397,-0.0974355
0.39725,-0.109162
0.3975,-0.105631
0.39775,-0.104888
0.398,-0.108226
0.39825,-0.0930156
0.3985,-0.0753029
0.39875,-0.0603568
0.399,-0.0267071
0.39925,-0.00388827
0.3995,0.0263418
0.39975,0.0628021
0.4,0.093668
0.40025,0.131735
0.4005,0.163686
0.40075,0.194152
0.401,0.231202
0.40125,0.251255
0.4015,0.269345
0.40175,0.29173
0.402,0.296507
0.40225,0.305607
0.4025,0.306846
0.40275,0.301996
0.403,0.292628
0.40325,0.276982
0.4035,0.256089
0.40375,0.240374
0.404,0.220311
0.40425,0.198024
0.4045,0.169061
0.40475,0.148242
0.405,0.133345
0.40525,0.113343
0.4055,0.0944106
0.40575,0.0865004
0.406,0.0749466
0.40625,0.0663184
0.4065,0.0557135
0.40675,0.0556831
0.407,0.0553939
0.40725,0.0603883
0.4075,0.0655892
0.40775,0.0672026
0.408,0.0701164
0.40825,0.0711843
0.4085,0.0743038
0.40875,0.0720723
0.409,0.0715579
0.40925,0.0647792
0.4095,0.0621281
0.40975,0.0429761
0.41,0.0334795
0.41025,0.0138521
0.4105,-0.00736156
0.41075,-0.0267087
0.411,-0.053966
0.41125,-0.0735094
0.4115,-0.0960789
0.41175,-0.118881
0.412,-0.131126
0.41225,-0.155218
0.4125,-0.164258
0.41275,-0.174086
0.413,-0.172882
0.41325,-0.167689
0.4135,-0.162302
0.41375,-0.144214
0.414,-0.126022
0.41425,-0.10402
0.4145,-0.0827756
0.41475,-0.0519253
0.415,-0.0156556
0.41525,0.019971
0.4155,0.0520554
0.41575,0.0827366
0.416,0.114804
0.41625,0.150828
0.4165,0.180333
0.41675,0.197199
0.417,0.216792
0.41725,0.235535
0.4175,0.241255
0.41775,0.239844
0.418,0.244044
0.41825,0.237735
0.4185,0.224882
0.41875,0.203794
0.419,0.189275
0.41925,0.167636
0.4195,0.143601
0.41975,0.121279
0.42,0.100529
0.42025,0.0779868
0.4205,0.058618
0.42075,0.0427937
0.421,0.0239327
0.42125,0.0175878
0.4215,0.00918684
0.42175,-0.000518278
0.422,-0.00154507
0.42225,-0.00161988
0.4225,-0.00666919
0.42275,0.00418671
0.423,-0.00127381
0.42325,0.00295505
0.4235,0.00743487
0.42375,0.0147213
0.424,0.0141456
0.42425,0.0156582
0.4245,0.0132688
0.42475,-0.00211126
0.425,-0.0100169
0.42525,-0.020777
0.4255,-0.0374545
0.42575,-0.0515678
0.426,-0.0765985
0.42625,-0.0957737
0.4265,-0.126241
0.42675,-0.148085
0.427,-0.166231
0.42725,-0.183237
0.4275,-0.198178
0.42775,-0.219538
0.428,-0.225351
0.42825,-0.227231
0.4285,-0.230677
0.42875,-0.221895
0.429,-0.21855
0.42925,-0.196049
0.4295,-0.175398
0.42975,-0.149408
0.43,-0.120572
0.43025,-0.0940952
0.4305,-0.0574665
0.43075,-0.0236781
0.431,0.012349
0.43125,0.0482131
0.4315,0.0794012
0.43175,0.109981
0.432,0.126526
0.43225,0.150214
0.4325,0.172553
0.43275,0.180355
0.433,0.187741
0.43325,0.184271
0.4335,0.188086
0.43375,0.17428
0.434,0.161195
0.43425,0.143531
0.4345,0.122884
0.43475,0.104643
0.435,0.0810899
0.43525,0.0629645
0.4355,0.0355073
0.43575,0.0219287
0.436,0.00206208
0.43625,-0.0144046
0.4365,-0.0302661
0.43675,-0.0435
0.437,-0.0457491
0.43725,-0.0549123
0.4375,-0.055373
0.43775,-0.0536685
0.438,-0.0514521
0.43825,-0.0508328
0.4385,-0.0484984
0.43875,-0.0374708
0.439,-0.0334035
0.43925,-0.0291908
0.4395,-0.036449
0.43975,-0.0376523
0.44,-0.045276
0.44025,-0.0528862
0.4405,-0.0634177
0.44075,-0.0728441
0.441,-0.0902057
0.44125,-0.108111
0.4415,-0.128869
0.44175,-0.149611
0.442,-0.172162
0.44225,-0.199612
0.4425,-0.223545
0.44275,-0.238049
0.443,-0.256209
0.44325,-0.260978
0.4435,-0.26696
0.44375,-0.268901
0.444,-0.266685
0.44425,-0.25925
0.4445,-0.252904
0.44475,-0.231527
0.445,-0.206339
0.44525,-0.177347
0.4455,-0.154622
0.44575,-0.119696
0.446,-0.0867269
0.44625,-0.0469117
0.4465,-0.0137751
0.44675,0.0255184
0.447,0.0562779
0.44725,0.0816352
0.4475,0.107355
0.44775,0.128697
0.448,0.139493
0.44825,0.150724
0.4485,0.150074
0.44875,0.147012
0.449,0.145796
0.44925,0.137021
0.4495,0.120988
0.44975,0.10279
0.45,0.0873595
0.45025,0.0642723
0.4505,0.0390979
0.45075,0.0181979
0.451,-0.00377169
0.45125,-0.0206391
0.4515,-0.039926
0.45175,-0.0564006
0.452,-0.0674874
0.45225,-0.0787239
0.4525,-0.0778276
0.45275,-0.087176
0.453,-0.0802371
0.45325,-0.0842399
0.4535,-0.0734874
0.45375,-0.0710034
0.454,-0.064988
0.45425,-0.0635194
0.4545,-0.0647504
0.45475,-0.0610771
0.455,-0.0611724
0.45525,-0.0596201
0.4555,-0.0662033
0.45575,-0.0759545
0.456,-0.0909903
0.45625,-0.105025
0.4565,-0.126395
0.45675,-0.140962
0.457,-0.166264
0.45725,-0.182054
0.4575,-0.208776
0.45775,-0.223626
0.458,-0.246061
0.45825,-0.263386
0.4585,-0.272668
0.45875,-0.290244
0.459,-0.290081
0.45925,-0.294499
0.4595,-0.286577
0.45975,-0.271073
0.46,-0.256495
0.46025,-0.235521
0.4605,-0.212085
0.46075,-0.182481
0.461,-0.150704
0.46125,-0.111555
0.4615,-0.0816822
0.46175,-0.039922
0.462,-0.00944985
0.46225,0.0278577
0.4625,0.052654
0.46275,0.0799793
0.463,0.101084
0.46325,0.116121
0.4635,0.128706
0.46375,0.139214
0.464,0.146165
0.46425,0.14173
0.4645,0.135553
0.46475,0.11924
0.465,0.103151
0.46525,0.0913295
0.4655,0.0648355
0.46575,0.0424411
0.466,0.0208637
0.46625,0.00649943
0.4665,-0.0192937
0.46675,-0.0376557
0.467,-0.0546595
0.46725,-0.0602353
0.4675,-0.0754693
0.46775,-0.0855744
0.468,-0.0881372
0.46825,-0.0889293
0.4685,-0.0875191
0.46875,-0.0842915
0.469,-0.0761269
0.46925,-0.0669439
0.4695,-0.0693407
0.46975,-0.0611316
0.47,-0.0625055
0.47025,-0.0618301
0.4705,-0.0619659
0.47075,-0.0607849
0.471,-0.0716311
0.47125,-0.0763292
0.4715,-0.0897598
0.47175,-0.108252
0.472,-0.123749
0.47225,-0.146977
0.4725,-0.169437
0.47275,-0.189636
0.473,-0.210752
0.47325,-0.233662
0.4735,-0.251981
0.47375,-0.262721
0.474,-0.273171
0.47425,-0.283259
0.4745,-0.288227
0.47475,-0.281267
0.475,-0.273261
0.47525,-0.257533
0.4755,-0.235638
0.47575,-0.214939
0.476,-0.185618
0.47625,-0.16211
0.4765,-0.12904
0.47675,-0.0912344
0.477,-0.057786
0.47725,-0.0161275
0.4775,0.0120705
0.47775,0.0478003
0.478,0.0795205
0.47825,0.0996602
0.4785,0.125053
0.47875,0.138886
0.479,0.153058
0.47925,0.159835
0.4795,0.153294
0.47975,0.145942
0.48,0.142789
0.48025,0.130085
0.4805,0.115269
0.48075,0.0963401
0.481,0.0673721
0.48125,0.046774
0.4815,0.0243471
0.48175,0.0109757
0.482,-0.0110005
0.48225,-0.0324923
0.4825,-0.0434432
0.48275,-0.0494288
0.483,-0.0584832
0.48325,-0.0700381
0.4835,-0.069277
0.48375,-0.0676362
0.484,-0.0636904
0.48425,-0.0630643
0.4845,-0.0566576
0.48475,-0.0460741
0.485,-0.0423314
0.48525,-0.0365728
0.4855,-0.0416123
0.48575,-0.0431364
0.486,-0.0441433
0.48625,-0.0414551
0.4865,-0.0548416
0.48675,-0.068209
0.487,-0.0832125
0.48725,-0.0925614
0.4875,-0.111898
0.48775,-0.13318
0.488,-0.162253
0.48825,-0.17491
0.4885,-0.196912
0.48875,-0.219285
0.489,-0.237649
0.48925,-0.25127
0.4895,-0.252197
0.48975,-0.259384
0.49,-0.257129
0.49025,-0.252586
0.4905,-0.245419
0.49075,-0.23045
0.491,-0.208535
0.49125,-0.17956
0.4915,-0.150083
0.49175,-0.121128
0.492,-0.0803187
0.49225,-0.044582
0.4925,-0.00876745
0.49275,0.0198043
0.493,0.0614383
0.49325,0.0881449
0.4935,0.117511
0.49375,0.139017
0.494,0.158046
0.49425,0.167383
0.4945,0.182788
0.49475,0.184129
0.495,0.180855
0.49525,0.174068
0.4955,0.162967
0.49575,0.14673
0.496,0.130934
0.49625,0.113646
0.4965,0.0916561
0.49675,0.0678432
0.497,0.0422399
0.49725,0.0266959
0.4975,0.0101509
0.49775,-0.00387082
0.498,-0.0153348
0.49825,-0.0304007
0.4985,-0.0340316
0.49875,-0.0372739
0.499,-0.0408262
0.49925,-0.0384125
0.4995,-0.0378668
0.49975,-0.0323464
0.5,-0.0220434
0.50025,-0.0163827
0.5005,-0.0125236
0.50075,-0.0152826
0.501,-0.0127323
0.50125,-0.0135359
0.5015,-0.0153562
0.50175,-0.0164633
0.502,-0.0292636
0.50225,-0.0469559
0.5025,-0.0581879
0.50275,-0.0806361
0.503,-0.0996318
0.50325,-0.1163
0.5035,-0.137421
0.50375,-0.160491
0.504,-0.180705
0.50425,-0.192093
0.5045,-0.207241
0.50475,-0.222568
0.505,-0.226101
0.50525,-0.230032
0.5055,-0.228039
0.50575,-0.216232
0.506,-0.204389
0.50625,-0.188327
0.5065,-0.166554
0.50675,-0.140361
0.507,-0.105174
0.50725,-0.0708306
0.5075,-0.0378434
0.50775,0.000303933
0.508,0.0336579
0.50825,0.0701925
0.5085,0.0993815
0.50875,1.36E-01
0.509,0.153757
0.50925,0.180808
0.5095,0.192478
0.50975,0.203267
0.51,0.214299
0.51025,0.216628
0.5105,0.204166
0.51075,0.197907
0.511,0.183926
0.51125,0.167071
0.5115,0.153302
0.51175,0.13165
0.512,0.107546
0.51225,0.0837278
0.5125,0.0706461
0.51275,0.0449751
0.513,0.0273819
0.51325,0.0126445
0.5135,0.00166854
0.51375,-0.00518486
0.514,-0.0106829
0.51425,-0.00962028
0.5145,-0.00852491
0.51475,-0.00535511
0.515,0.00197871
0.51525,0.00354928
0.5155,1.12E-02
0.51575,0.00867614
0.516,0.0164609
0.51625,0.0194481
0.5165,0.0243349
0.51675,0.0171833
0.517,0.0135603
0.51725,0.000388747
0.5175,-0.00546906
0.51775,-0.0228614
0.518,-0.042303
0.51825,-0.0557334
0.5185,-0.0810416
0.51875,-0.098947
0.519,-0.115649
0.51925,-0.139633
0.5195,-0.154195
0.51975,-0.173794
0.52,-0.185717
0.52025,-0.197029
0.5205,-0.207625
0.52075,-0.198613
0.521,-0.196649
0.52125,-0.185167
0.5215,-0.174848
0.52175,-0.152042
0.522,-0.126902
0.52225,-0.0926721
0.5225,-0.0603619
0.52275,-0.0270558
0.523,0.00879973
0.52325,0.0431282
0.5235,0.072924
0.52375,0.113444
0.524,0.139241
0.52425,0.172853
0.5245,0.192654
0.52475,0.207965
0.525,0.221677
0.52525,0.238691
0.5255,0.241094
0.52575,0.232031
0.526,0.230233
0.52625,0.215519
0.5265,0.203512
0.52675,0.181173
0.527,0.165043
0.52725,0.144311
0.5275,0.121877
0.52775,0.105928
0.528,0.0827111
0.52825,0.060922
0.5285,0.0435311
0.52875,0.0313608
0.529,0.0222599
0.52925,0.0186284
0.5295,0.0161565
0.52975,0.0154205
0.53,0.018785
0.53025,0.0187842
0.5305,0.0241167
0.53075,0.0222695
0.531,0.0296103
0.53125,0.0351402
0.5315,0.0399471
0.53175,0.03743
0.532,0.0379233
0.53225,0.0337985
0.5325,0.0349593
0.53275,0.018821
0.533,0.00927966
0.53325,-0.00998545
0.5335,-0.0285521
0.53375,-0.0478309
0.534,-0.0630683
0.53425,-0.0911549
0.5345,-0.110527
0.53475,-0.126319
0.535,-0.146049
0.53525,-0.161802
0.5355,-0.179066
0.53575,-0.177872
0.536,-0.183911
0.53625,-0.180317
0.5365,-0.178869
0.53675,-0.158193
0.537,-0.141847
0.53725,-0.12297
0.5375,-0.0984666
0.53775,-0.0620986
0.538,-0.0357348
0.53825,0.00814052
0.5385,0.0423735
0.53875,0.0789078
0.539,0.108483
0.53925,0.14285
0.5395,0.175444
0.53975,0.200177
0.54,0.217873
0.54025,0.238439
0.5405,0.241839
0.54075,0.249369
0.541,0.248314
0.54125,0.248417
0.5415,0.239056
0.54175,0.227512
0.542,0.205486
0.54225,0.186779
0.5425,0.166489
0.54275,0.14475
0.543,0.125768
0.54325,0.10174
0.5435,0.0839066
0.54375,0.0737148
0.544,0.0551362
0.54425,0.0464264
0.5445,0.0318093
0.54475,0.0295899
0.545,0.0214345
0.54525,0.0204978
0.5455,0.0221249
0.54575,0.0266362
0.546,0.0336196
0.54625,0.0386659
0.5465,0.0440364
0.54675,0.0503133
0.547,0.0488939
0.54725,0.0520748
0.5475,0.04368
0.54775,0.0398945
0.548,0.0319705
0.54825,0.0228489
0.5485,0.00929466
0.54875,-0.0112813
0.549,-0.0271719
0.54925,-0.0515395
0.5495,-0.0668685
0.54975,-0.0947793
0.55,-0.111588
0.55025,-0.133544
0.5505,-0.150921
0.55075,-0.160395
0.551,-0.176944
0.55125,-0.181999
0.5515,-0.177706
0.55175,-0.174462
0.552,-0.16682
0.55225,-0.153545
0.5525,-0.12618
0.55275,-0.100286
0.553,-0.0768763
0.55325,-0.0445924
0.5535,-0.0126547
0.55375,0.0270159
0.554,0.0605754
0.55425,0.0927577
0.5545,0.131615
0.55475,0.15668
0.555,0.183724
0.55525,0.214328
0.5555,0.23124
0.55575,0.238809
0.556,0.249132
0.55625,0.258604
0.5565,0.250257
0.55675,0.243496
0.557,0.234263
0.55725,0.219765
0.5575,0.206689
0.55775,0.178685
0.558,0.162601
0.55825,0.139494
0.5585,0.118557
0.55875,0.100763
0.559,0.079404
0.55925,0.0595131
0.5595,0.0455058
0.55975,0.0416089
0.56,0.0260849
0.56025,0.0205818
0.5605,0.0227249
0.56075,0.0287815
0.561,0.0290571
0.56125,0.029703
0.5615,0.0343632
0.56175,0.0454705
0.562,0.0493936
0.56225,0.0449641
0.5625,0.0446956
0.56275,0.0517701
0.563,0.0483894
0.56325,0.0351625
0.5635,0.030857
0.56375,0.0155999
0.564,0.00234908
0.56425,-0.0142463
0.5645,-0.0439044
0.56475,-0.0623874
0.565,-0.0797443
0.56525,-0.104174
0.5655,-0.120058
0.56575,-0.147305
0.566,-0.156255
0.56625,-0.173792
0.5665,-0.176522
0.56675,-0.183423
0.567,-0.186354
0.56725,-0.174076
0.5675,-0.160298
0.56775,-0.14118
0.568,-0.124388
0.56825,-0.0957681
0.5685,-0.0698038
0.56875,-0.0333396
0.569,0.000554865
0.56925,0.0316465
0.5695,0.06835
0.56975,0.108339
0.57,0.134603
0.57025,0.164349
0.5705,0.195825
0.57075,0.210896
0.571,0.228829
0.57125,0.238321
0.5715,0.25186
0.57175,0.247596
0.572,0.24805
0.57225,0.235173
0.5725,0.225459
0.57275,0.204845
0.573,0.182644
0.57325,0.165372
0.5735,0.148036
0.57375,0.121874
0.574,0.102687
0.57425,0.0801543
0.5745,0.0627792
0.57475,0.0435504
0.575,0.0332467
0.57525,0.0269498
0.5755,0.0171526
0.57575,0.0119208
0.576,0.0118839
0.57625,0.0165286
0.5765,0.0222155
0.57675,0.023037
0.577,0.0332265
0.57725,0.0292511
0.5775,0.0409976
0.57775,0.0410129
0.578,0.0381746
0.57825,0.0389763
0.5785,0.0360703
0.57875,0.0206361
0.579,0.0116591
0.57925,-0.00395681
0.5795,-0.0239904
0.57975,-0.036837
0.58,-0.0604728
0.58025,-0.0760584
0.5805,-0.100239
0.58075,-0.122914
0.581,-0.146007
0.58125,-0.165996
0.5815,-0.178291
0.58175,-0.18707
0.582,-0.193486
0.58225,-0.19018
0.5825,-0.186116
0.58275,-0.176069
0.583,-0.165721
0.58325,-0.143257
0.5835,-0.127306
0.58375,-0.0917119
0.584,-0.066776
0.58425,-0.0285169
0.5845,0.00508041
0.58475,0.0429811
0.585,0.0778638
0.58525,0.104465
0.5855,0.139826
0.58575,0.162658
0.586,0.18667
0.58625,0.211476
0.5865,0.227393
0.58675,0.233073
0.587,0.231631
0.58725,0.236566
0.5875,0.231761
0.58775,0.212637
0.588,0.199245
0.58825,0.188135
0.5885,0.162411
0.58875,0.139948
0.589,0.123667
0.58925,0.0968855
0.5895,0.0764185
0.58975,0.0553783
0.59,0.0422418
0.59025,0.0286132
0.5905,0.0145637
0.59075,0.00940389
0.591,0.000750744
0.59125,-0.00222996
0.5915,0.0070554
0.59175,0.00288174
0.592,0.00870777
0.59225,0.0123772
0.5925,0.0150483
0.59275,0.0207398
0.593,0.0254714
0.59325,0.0281814
0.5935,0.0274501
0.59375,0.0200298
0.594,0.0203684
0.59425,0.010327
0.5945,-0.00924517
0.59475,-0.0174304
0.595,-0.0397119
0.59525,-0.061447
0.5955,-0.0865086
0.59575,-0.106445
0.596,-0.127657
0.59625,-0.145794
0.5965,-0.164835
0.59675,-0.181249
0.597,-0.194219
0.59725,-0.203625
0.5975,-0.21033
0.59775,-0.207441
0.598,-0.201724
0.59825,-0.189639
0.5985,-0.169205
0.59875,-0.147465
0.599,-0.121135
0.59925,-0.0908153
0.5995,-0.0632866
0.59975,-0.0290993
0.6,0.00498952
0.60025,0.04507
0.6005,0.0798423
0.60075,0.112849
0.601,0.13568
0.60125,0.16173
0.6015,0.18826
0.60175,0.204026
0.602,0.220503
0.60225,0.220216
0.6025,0.221878
0.60275,0.221239
0.603,0.208862
0.60325,0.199369
0.6035,0.182095
0.60375,0.162636
0.604,0.139684
0.60425,0.116443
0.6045,0.102943
0.60475,0.0731532
0.605,0.0604642
0.60525,0.0384382
0.6055,0.0236941
0.60575,0.0121209
0.606,-0.00320093
0.60625,-0.00715902
0.6065,-0.0131585
0.60675,-8.93E-03
0.607,-0.00558692
0.60725,-0.00705345
0.6075,0.000648032
0.60775,0.00823844
0.608,0.0103707
0.60825,0.0178867
0.6085,0.0200108
0.60875,0.0110072
0.609,0.0142463
0.60925,0.00857947
0.6095,0.0023168
0.60975,-0.0132924
0.61,-0.0258588
0.61025,-0.0395277
0.6105,-0.0602658
0.61075,-0.0800079
0.611,-0.100672
0.61125,-0.123241
0.6115,-0.145962
0.61175,-0.165935
0.612,-0.181908
0.61225,-0.19406
0.6125,-0.210559
0.61275,-0.21332
0.613,-0.220428
0.61325,-0.216853
0.6135,-0.208495
0.61375,-0.185615
0.614,-0.168324
0.61425,-0.143302
0.6145,-0.121257
0.61475,-0.0841333
0.615,-0.0560913
0.61525,-0.0226713
0.6155,0.0131851
0.61575,0.0523606
0.616,0.0881314
0.61625,0.110513
0.6165,0.145108
0.61675,0.168912
0.617,0.19154
0.61725,0.202855
0.6175,0.209343
0.61775,0.21531
0.618,0.211056
0.61825,0.207189
0.6185,0.198497
0.61875,0.187483
0.619,0.162718
0.61925,0.1432
0.6195,0.129224
0.61975,0.10357
0.62,0.076852
0.62025,0.0564115
0.6205,0.0454649
0.62075,0.0270089
0.621,0.0108272
0.62125,-0.0030835
0.6215,-0.0136157
0.62175,-0.0183236
0.622,-0.0159661
0.62225,-0.0194883
0.6225,-0.0104508
0.62275,-0.0101597
0.623,-0.00589454
0.62325,-0.00537756
0.6235,0.00170833
0.62375,0.010678
0.624,0.00536233
0.62425,0.00456785
0.6245,0.000390081
0.62475,0.000696337
0.625,-1.03E-02
0.62525,-0.026597
0.6255,-0.0359967
0.62575,-0.0581887
0.626,-0.0714548
0.62625,-0.0996364
0.6265,-0.117363
0.62675,-0.136087
0.627,-0.1588
0.62725,-0.178248
0.6275,-0.194426
0.62775,-0.214094
0.628,-0.218867
0.62825,-0.225933
0.6285,-0.220678
0.62875,-0.219893
0.629,-0.20431
0.62925,-0.187438
0.6295,-0.164227
0.62975,-0.135494
0.63,-0.109087
0.63025,-0.0752216
0.6305,-0.0455426
0.63075,-0.00389023
0.631,0.0281914
0.63125,0.0643237
0.6315,0.0905142
0.63175,0.121989
0.632,0.152556
0.63225,0.168758
0.6325,0.193899
0.63275,0.199896
0.633,0.207014
0.63325,0.20883
0.6335,0.206882
0.63375,0.195266
0.634,0.189959
0.63425,0.174753
0.6345,0.148775
0.63475,0.133432
0.635,0.11545
0.63525,0.0917995
0.6355,0.0712586
0.63575,0.043354
0.636,0.0320878
0.63625,0.00906036
0.6365,-0.0024299
0.63675,-0.00821861
0.637,-0.0129029
0.63725,-0.0140349
0.6375,-0.0173838
0.63775,-0.0201635
0.638,-0.0184581
0.63825,-0.0109071
0.6385,-0.00725137
0.63875,0.000438155
0.639,0.00582258
0.63925,0.0102769
0.6395,0.00290884
0.63975,0.00727886
0.64,-0.00316753
0.64025,-0.0115044
0.6405,-0.0203831
0.64075,-0.0342159
0.641,-0.0450156
0.64125,-0.068095
0.6415,-0.0837323
0.64175,-0.108606
0.642,-0.133119
0.64225,-0.150813
0.6425,-0.168619
0.64275,-0.191662
0.643,-0.201448
0.64325,-0.217967
0.6435,-0.222712
0.64375,-0.219851
0.644,-0.215401
0.64425,-0.206947
0.6445,-0.197269
0.64475,-0.174913
0.645,-0.158
0.64525,-0.124752
0.6455,-0.0924786
0.64575,-0.0594417
0.646,-0.0331754
0.64625,0.0124297
0.6465,0.0429387
0.64675,0.0780743
0.647,0.108214
0.64725,0.132123
0.6475,0.16517
0.64775,0.177442
0.648,0.196858
0.64825,0.207957
0.6485,0.210901
0.64875,0.20904
0.649,0.202835
0.64925,0.189826
0.6495,0.179331
0.64975,0.161007
0.65,0.142498
0.65025,0.122382
0.6505,0.104729
0.65075,0.0835573
0.651,0.0548113
0.65125,0.0389369
0.6515,0.0239164
0.65175,0.0127473
0.652,-0.00661047
0.65225,-0.00620684
0.6525,-0.0164182
0.65275,-0.0181306
0.653,-0.0168
0.65325,-0.0198899
0.6535,-0.0161893
0.65375,-0.00309098
0.654,-0.000892775
0.65425,0.00440905
0.6545,0.0103702
0.65475,0.00513902
0.655,0.00357885
0.65525,0.00454989
0.6555,-0.00173324
0.65575,-0.0113503
0.656,-0.0198443
0.65625,-0.0418167
0.6565,-0.0586136
0.65675,-0.077346
0.657,-0.0912123
0.65725,-0.114716
0.6575,-0.142304
0.65775,-0.157122
0.658,-0.173707
0.65825,-0.19512
0.6585,-0.208315
0.65875,-0.219235
0.659,-0.225106
0.65925,-0.219448
0.6595,-0.21273
0.65975,-0.204506
0.66,-0.187797
0.66025,-0.164909
0.6605,-0.143681
0.66075,-0.114641
0.661,-0.0738459
0.66125,-0.0441325
0.6615,-0.00545662
0.66175,0.0278683
0.662,0.0658363
0.66225,0.0942072
0.6625,0.124518
0.66275,0.154774
0.663,0.173076
0.66325,0.192979
0.6635,0.203901
0.66375,0.215225
0.664,0.215333
0.66425,0.206806
0.6645,0.200452
0.66475,0.195577
0.665,0.179355
0.66525,0.153595
0.6655,0.141723
0.66575,0.116545
0.666,0.0918911
0.66625,0.0779225
0.6665,0.0529045
0.66675,0.0322064
0.667,0.0177969
0.66725,0.00965684
0.6675,-0.00594649
0.66775,-0.00515422
0.668,-0.0155408
0.66825,-0.0121502
0.6685,-0.0134343
0.66875,-0.0110923
0.669,-0.00182381
0.66925,-0.00335184
0.6695,0.00113012
0.66975,0.00477867
0.67,0.00714712
0.67025,0.0160169
0.6705,0.00861572
0.67075,0.00886783
0.671,-0.00472058
0.67125,-0.00827
0.6715,-0.0271872
0.67175,-0.0374901
0.672,-0.0618859
0.67225,-0.0775086
0.6725,-0.103735
0.67275,-0.123559
0.673,-0.140864
0.67325,-0.159738
0.6735,-0.181478
0.67375,-0.200599
0.674,-0.211691
0.67425,-0.212302
0.6745,-0.212091
0.67475,-0.210492
0.675,-0.206324
0.67525,-0.187778
0.6755,-0.174322
0.67575,-0.150312
0.676,-0.119017
0.67625,-0.0918204
0.6765,-0.0635799
0.67675,-0.028605
0.677,0.0146682
0.67725,0.0496975
0.6775,0.0785808
0.67775,0.112843
0.678,0.144775
0.67825,0.165508
0.6785,0.185753
0.67875,0.20097
0.679,0.211519
0.67925,0.22099
0.6795,0.214251
0.67975,0.208116
0.68,0.203351
0.68025,0.186721
0.6805,0.172646
0.68075,0.15252
0.681,0.136061
0.68125,0.114657
0.6815,0.0940808
0.68175,0.0701679
0.682,0.0533252
0.68225,0.0368182
0.6825,0.0221747
0.68275,0.00296222
0.683,0.000438652
0.68325,-0.0083226
0.6835,-0.00727431
0.68375,-0.00726386
0.684,-0.0104477
0.68425,-0.00294381
0.6845,0.00360592
0.68475,0.00979738
0.685,0.00819981
0.68525,0.011687
0.6855,0.0176391
0.68575,0.0171552
0.686,0.0168934
0.68625,0.00733468
0.6865,-0.00553299
0.68675,-0.0119388
0.687,-0.0291666
0.68725,-0.042924
0.6875,-0.069008
0.68775,-0.0816638
0.688,-0.107577
0.68825,-0.129371
0.6885,-0.153697
0.68875,-0.172491
0.689,-0.184043
0.68925,-0.202032
0.6895,-0.210388
0.68975,-0.210585
0.69,-0.21027
0.69025,-0.208258
0.6905,-0.200115
0.69075,-0.177461
0.691,-0.157093
0.69125,-0.134992
0.6915,-0.104852
0.69175,-0.0709005
0.692,-0.0405076
0.69225,-0.00312612
0.6925,0.0370098
0.69275,0.066396
0.693,0.101712
0.69325,0.127387
0.6935,0.159868
0.69375,0.180296
0.694,0.198468
0.69425,0.208901
0.6945,0.219244
0.69475,0.224645
0.695,0.218819
0.69525,0.214322
0.6955,0.20533
0.69575,0.186911
0.696,0.168802
0.69625,0.150113
0.6965,0.121573
0.69675,0.108963
0.697,0.083503
0.69725,0.0675177
0.6975,0.0447834
0.69775,0.0314446
0.698,0.0170966
0.69825,0.00720449
0.6985,-0.000918898
0.69875,-0.00231168
0.699,-0.0117926
0.69925,-0.00625698
0.6995,-0.00222735
0.69975,0.00336984
0.7,0.00879941
0.70025,0.0113549
0.7005,0.0135086
0.70075,0.0181912
0.701,0.0149353
0.70125,0.0177792
0.7015,0.0159223
0.70175,0.00794792
0.702,-0.00474329
0.70225,-0.0126358
0.7025,-0.0285029
0.70275,-0.0458448
0.703,-0.0727998
0.70325,-0.0896414
0.7035,-0.114701
0.70375,-0.132775
0.704,-0.158976
0.70425,-0.171741
0.7045,-0.190945
0.70475,-0.198724
0.705,-0.205445
0.70525,-0.206913
0.7055,-0.204743
0.70575,-0.204413
0.706,-0.188273
0.70625,-0.172207
0.7065,-0.149796
0.70675,-0.117122
0.707,-0.0901529
0.70725,-0.0568437
0.7075,-0.0249306
0.70775,0.0193058
0.708,0.0547894
0.70825,0.0846561
0.7085,0.11566
0.70875,0.147451
0.709,0.173018
0.70925,0.194794
0.7095,0.211055
0.70975,0.214458
0.71,0.219508
0.71025,0.22505
0.7105,0.219451
0.71075,0.208451
0.711,0.198057
0.71125,0.181347
0.7115,0.158226
0.71175,0.136439
0.712,0.115882
0.71225,0.0945354
0.7125,0.0718581
0.71275,0.0608604
0.713,0.0425471
0.71325,0.0251497
0.7135,0.0134239
0.71375,0.00455243
0.714,-0.00500725
0.71425,-0.00521776
0.7145,-0.00943436
0.71475,-0.00746898
0.715,0.00285346
0.71525,0.00779494
0.7155,0.00692178
0.71575,0.0179598
0.716,0.023463
0.71625,0.0184954
0.7165,0.0233455
0.71675,0.0220519
0.717,0.013579
0.71725,0.00482229
0.7175,-0.00304781
0.71775,-0.0167195
0.718,-0.038003
0.71825,-0.0611616
0.7185,-0.0822089
0.71875,-0.104374
0.719,-0.121245
0.71925,-0.141992
0.7195,-0.161643
0.71975,-0.179802
0.72,-0.188818
0.72025,-0.204641
0.7205,-0.206546
0.72075,-0.208354
0.721,-0.200286
0.72125,-0.196372
0.7215,-0.173362
0.72175,-0.158842
0.722,-0.137591
0.72225,-0.103345
0.7225,-0.0684747
0.72275,-0.042222
0.723,-0.00505368
0.72325,0.0315284
0.7235,0.0656131
0.72375,0.104981
0.724,0.130471
0.72425,0.156415
0.7245,0.17774
0.72475,0.196843
0.725,0.211427
0.72525,0.219268
0.7255,0.225339
0.72575,0.220496
0.726,0.211829
0.72625,0.20167
0.7265,0.193872
0.72675,0.176201
0.727,0.147829
0.72725,0.13053
0.7275,0.110081
0.72775,0.08789
0.728,0.06204
0.72825,0.0442447
0.7285,0.0304091
0.72875,0.0172848
0.729,0.0129493
0.72925,0.00343716
0.7295,-0.00476175
0.72975,-0.0100692
0.73,-0.00398394
0.73025,-0.00509123
0.7305,0.0020806
0.73075,0.0106627
0.731,0.00947582
0.73125,0.0188491
0.7315,0.0195689
0.73175,0.0178336
0.732,0.0239511
0.73225,0.0155208
0.7325,0.00810267
0.73275,-0.00373564
0.733,-0.016119
0.73325,-0.0329681
0.7335,-0.0446632
0.73375,-0.0663387
0.734,-0.0890779
0.73425,-0.10711
0.7345,-0.136922
0.73475,-0.15774
0.735,-0.171432
0.73525,-0.190852
0.7355,-0.194793
0.73575,-0.206188
0.736,-0.212757
0.73625,-0.20229
0.7365,-0.200896
0.73675,-0.185993
0.737,-0.170545
0.73725,-0.151599
0.7375,-0.123114
0.73775,-0.0877822
0.738,-0.0596963
0.73825,-0.023123
0.7385,0.0129594
0.73875,0.0460823
0.739,0.0839525
0.73925,0.117668
0.7395,0.143717
0.73975,0.166917
0.74,0.187681
0.74025,0.207462
0.7405,0.22104
0.74075,0.221996
0.741,0.229303
0.74125,0.2223
0.7415,0.215407
0.74175,0.201514
0.742,0.183796
0.74225,0.163455
0.7425,0.137487
0.74275,0.117871
0.743,0.0933132
0.74325,0.0759903
0.7435,0.0581849
0.74375,0.0367504
0.744,0.028731
0.74425,0.0167005
0.7445,0.00579153
0.74475,-0.00285092
0.745,-0.00685268
0.74525,-0.00955491
0.7455,-0.003388
0.74575,0.00367096
0.746,0.00598216
0.74625,0.0119885
0.7465,0.0158906
0.74675,0.0144546
0.747,0.017268
0.74725,0.0157831
0.7475,0.0221824
0.74775,0.0148372
0.748,0.00486851
0.74825,-0.00831117
0.7485,-0.0249132
0.74875,-0.0372845
0.749,-0.060961
0.74925,-0.0761544
0.7495,-0.0983613
0.74975,-0.120211
0.75,-0.142185
0.75025,-0.16342
0.7505,-0.179228
0.75075,-0.194741
0.751,-0.202088
0.75125,-0.209002
0.7515,-0.21493
0.75175,-0.207565
0.752,-0.193873
0.75225,-0.17704
0.7525,-0.164866
0.75275,-0.131573
0.753,-0.106551
0.75325,-0.0754638
0.7535,-0.0446195
0.75375,-0.00350586
0.754,0.0255751
0.75425,0.0675994
0.7545,0.092678
0.75475,0.127486
0.755,0.158576
0.75525,0.179183
0.7555,0.202351
0.75575,0.21522
0.756,0.222912
0.75625,0.227317
0.7565,0.224477
0.75675,0.21863
0.757,0.204891
0.75725,0.194179
0.7575,0.166614
0.75775,0.153891
0.758,0.126664
0.75825,0.107426
0.7585,0.0884275
0.75875,0.0688569
0.759,0.0460651
0.75925,0.0326454
0.7595,0.0167202
0.75975,0.0100518
0.76,-0.00100239
0.76025,-0.00928195
0.7605,-0.01102
0.76075,-0.00302606
0.761,0.00122659
0.76125,-0.00332756
0.7615,0.00274122
0.76175,0.0117845
0.762,0.0194848
0.76225,0.0148992
0.7625,0.0224522
0.76275,0.0224523
0.763,0.0105184
0.76325,0.00954358
0.7635,-0.00475986
0.76375,-0.0152695
0.764,-0.0303341
0.76425,-0.0438627
0.7645,-0.066191
0.76475,-0.0939444
0.765,-0.106676
0.76525,-0.131382
0.7655,-0.148577
0.76575,-0.171755
0.766,-0.191911
0.76625,-0.199344
0.7665,-0.203624
0.76675,-0.208606
0.767,-0.213577
0.76725,-0.201558
0.7675,-0.191568
0.76775,-0.172447
0.768,-0.154684
0.76825,-0.12755
0.7685,-0.0909767
0.76875,-0.059342
0.769,-0.0251022
0.76925,0.0116754
0.7695,0.0435045
0.76975,0.08266
0.77,0.110406
0.77025,0.140469
0.7705,0.170111
0.77075,0.187196
0.771,0.204753
0.77125,0.212971
0.7715,0.218601
0.77175,0.220105
0.772,0.222068
0.77225,0.210895
0.7725,0.194066
0.77275,0.176629
0.773,0.166309
0.77325,0.141867
0.7735,0.118225
0.77375,0.0962399
0.774,0.080644
0.77425,0.0554682
0.7745,0.0378782
0.77475,0.027939
0.775,0.0140404
0.77525,0.00446495
0.7755,-0.0059974
0.77575,-0.0117725
0.776,-0.00653902
0.77625,-0.00177973
0.7765,-0.0052117
0.77675,0.00558885
0.777,0.00504062
0.77725,0.013399
0.7775,0.0174658
0.77775,0.0143989
0.778,0.0231451
0.77825,0.0195026
0.7785,0.0147495
0.77875,0.00286767
0.779,-0.00802619
0.77925,-0.0228149
0.7795,-0.0429378
0.77975,-0.0598655
0.78,-0.0767651
0.78025,-0.0956803
0.7805,-0.117447
0.78075,-0.147972
0.781,-0.16016
0.78125,-0.184179
0.7815,-0.190846
0.78175,-0.207705
0.782,-0.209903
0.78225,-0.210361
0.7825,-0.208672
0.78275,-0.19996
0.783,-0.182982
0.78325,-0.168936
0.7835,-0.14296
0.78375,-0.113577
0.784,-0.0810426
0.78425,-0.0461856
0.7845,-0.00813774
0.78475,0.0213783
0.785,0.0609023
0.78525,0.0931682
0.7855,0.122006
0.78575,0.147643
0.786,0.175077
0.78625,0.196511
0.7865,0.206684
0.78675,0.213701
0.787,0.21826
0.78725,0.217427
0.7875,0.209138
0.78775,0.202344
0.788,0.184
0.78825,0.175178
0.7885,0.152535
0.78875,0.127709
0.789,0.112645
0.78925,0.0853971
0.7895,0.0665519
0.78975,0.0475489
0.79,0.0316997
0.79025,0.0122752
0.7905,0.00932557
0.79075,0.00283492
0.791,-0.00938437
0.79125,-1.15E-02
0.7915,-0.0110072
0.79175,-0.00300401
0.792,0.0026537
0.79225,0.00453787
0.7925,0.0131395
0.79275,0.00935013
0.793,1.20E-02
0.79325,0.0151636
0.7935,0.01864
0.79375,1.80E-02
0.794,0.00845525
0.79425,-0.00494942
0.7945,-0.0110632
0.79475,-0.0285153
0.795,-0.0522819
0.79525,-0.0648804
0.7955,-0.0857689
0.79575,-0.110093
0.796,-0.130347
0.79625,-0.149004
0.7965,-0.175787
0.79675,-0.187017
0.797,-0.197858
0.79725,-0.205683
0.7975,-0.215757
0.79775,-0.21274
0.798,-0.201513
0.79825,-0.188269
0.7985,-0.177574
0.79875,-0.152683
0.799,-0.131164
0.79925,-0.0999785
0.7995,-0.0619086
0.79975,-0.0320277
0.8,0.00311893
0.80025,0.0387798
0.8005,0.0697364
0.80075,0.109439
0.801,0.136131
0.80125,0.16533
0.8015,0.18826
0.80175,0.205892
0.802,0.215898
0.80225,0.222172
0.8025,0.220513
0.80275,0.216186
0.803,0.209488
0.80325,0.198608
0.8035,0.179546
0.80375,0.159816
0.804,0.136999
0.80425,0.116039
0.8045,0.0930939
0.80475,0.0768428
0.805,0.0535156
0.80525,0.0429695
0.8055,0.0199654
0.80575,0.0070786
0.806,-0.00215462
0.80625,-8.42E-03
0.8065,-0.00932012
0.80675,-0.00904455
0.807,-0.00871649
0.80725,-0.00143626
0.8075,-0.00256232
0.80775,0.0102473
0.808,0.0116904
0.80825,0.0097743
0.8085,0.0186304
0.80875,0.0159428
0.809,0.015279
0.80925,0.0139114
0.8095,0.00240843
0.80975,-0.00906603
0.81,-0.0181825
0.81025,-0.0365133
0.8105,-0.0529818
0.81075,-0.0800271
0.811,-0.0969363
0.81125,-0.119048
0.8115,-0.141918
0.81175,-0.163737
0.812,-0.181861
0.81225,-0.199075
0.8125,-2.02E-01
0.81275,-0.210273
0.813,-0.208818
0.81325,-0.210763
0.8135,-0.196696
0.81375,-0.182104
0.814,-0.166761
0.81425,-0.141434
0.8145,-0.119752
0.81475,-0.0793853
0.815,-0.0529553
0.81525,-0.0145732
0.8155,0.0175274
0.81575,0.0532038
0.816,0.0910586
0.81625,0.117621
0.8165,0.152115
0.81675,0.176139
0.817,0.192384
0.81725,0.208757
0.8175,0.214257
0.81775,0.21879
0.818,0.218109
0.81825,0.216535
0.8185,0.204448
0.81875,0.192323
0.819,0.173294
0.81925,0.148618
0.8195,0.127334
0.81975,0.113892
0.82,0.0893374
0.82025,0.0714434
0.8205,0.0493755
0.82075,0.0286558
0.821,0.0213057
0.82125,0.00225235
0.8215,-0.00556797
0.82175,-0.00829458
0.822,-0.00504557
0.82225,-0.00627058
0.8225,-0.00142746
0.82275,0.000442093
0.823,0.000669679
0.82325,0.00514255
0.8235,0.00790614
0.82375,0.0167726
0.824,0.0208642
0.82425,0.0194935
0.8245,0.0170162
0.82475,0.0027611
0.825,-0.00117846
0.82525,-0.0128848
0.8255,-0.0260911
0.82575,-0.0490008
0.826,-0.0670858
0.82625,-0.0910585
0.8265,-0.111468
0.82675,-0.133301
0.827,-0.1506
0.82725,-0.166412
0.8275,-0.189259
0.82775,-0.202716
0.828,-0.204879
0.82825,-0.216354
0.8285,-0.212934
0.82875,-0.200808
0.829,-0.194795
0.82925,-0.1773
0.8295,-0.159089
0.82975,-0.130331
0.83,-0.10457
0.83025,-0.0695236
0.8305,-0.0292284
0.83075,0.00619951
0.831,0.0347144
0.83125,0.0672901
0.8315,0.10019
0.83175,0.132862
0.832,0.165918
0.83225,0.182229
0.8325,0.198075
0.83275,0.21598
0.833,0.222066
0.83325,0.22393
0.8335,0.214373
0.83375,0.206383
0.834,0.198449
0.83425,0.177883
0.8345,0.162113
0.83475,0.146583
0.835,0.126336
0.83525,0.102134
0.8355,0.0748233
0.83575,0.0610284
0.836,0.0405151
0.83625,0.0270412
0.8365,0.0153396
0.83675,0.00279621
0.837,-0.00612504
0.83725,-0.0123584
0.8375,-0.00738696
0.83775,-0.0122484
0.838,-0.00651424
0.83825,-0.00309473
0.8385,0.00250419
0.83875,0.0143804
0.839,0.00955804
0.83925,0.0165537
0.8395,0.0132451
0.83975,0.0188949
0.84,0.012297
0.84025,0.00216258
0.8405,-0.00445863
0.84075,-0.0241255
0.841,-0.0359232
0.84125,-0.0528342
0.8415,-0.0795763
0.84175,-0.102342
0.842,-0.122383
0.84225,-0.144736
0.8425,-0.159783
0.84275,-0.17563
0.843,-0.197014
0.84325,-0.202477
0.8435,-0.208138
0.84375,-0.212606
0.844,-0.206416
0.84425,-0.201206
0.8445,-0.187559
0.84475,-0.170455
0.845,-0.143019
0.84525,-0.117775
0.8455,-0.0823778
0.84575,-0.0559655
0.846,-0.0147435
0.84625,0.018667
0.8465,0.0531365
0.84675,0.0899476
0.847,0.116805
0.84725,0.152065
0.8475,0.171834
0.84775,0.196265
0.848,0.208916
0.84825,0.216136
0.8485,0.223279
0.84875,0.221077
0.849,0.214126
0.84925,0.202801
0.8495,0.193917
0.84975,0.170812
0.85,0.159167
0.85025,0.136018
0.8505,0.107948
0.85075,0.089462
0.851,0.068637
0.85125,0.0544561
0.8515,0.0359463
0.85175,0.0164704
0.852,0.00696303
0.85225,0.00348731
0.8525,-0.00473801
0.85275,-0.00556906
0.853,-0.00418902
0.85325,-0.0093559
0.8535,-0.00676486
0.85375,-0.000992636
0.854,0.00795317
0.85425,0.00772203
0.8545,0.0160816
0.85475,0.0199872
0.855,0.0194954
0.85525,0.0129689
0.8555,0.00747753
0.85575,0.0047233
0.856,-0.0132429
0.85625,-0.0253671
0.8565,-0.0428017
0.85675,-6.75E-02
0.857,-0.0836228
0.85725,-0.10463
0.8575,-0.125572
0.85775,-0.150494
0.858,-0.168941
0.85825,-0.184971
0.8585,-0.194645
0.85875,-0.20729
0.859,-0.211848
0.85925,-0.208466
0.8595,-0.201145
0.85975,-0.197498
0.86,-0.181341
0.86025,-0.162158
0.8605,-0.128341
0.86075,-0.0977563
0.861,-0.0727672
0.86125,-0.0386756
0.8615,-0.00068992
0.86175,0.0303307
0.862,0.0692181
0.86225,0.105502
0.8625,0.134269
0.86275,0.160185
0.863,0.177643
0.86325,0.205046
0.8635,0.207799
0.86375,0.224781
0.864,0.221458
0.86425,0.221488
0.8645,0.211277
0.86475,0.195861
0.865,0.185278
0.86525,0.164013
0.8655,0.145814
0.86575,0.119676
0.866,0.105943
0.86625,0.0769873
0.8665,0.059578
0.86675,0.0420498
0.867,0.024066
0.86725,0.0176093
0.8675,0.00871618
0.86775,-0.00153769
0.868,-0.0087371
0.86825,-0.00547671
0.8685,-0.00228813
0.86875,-0.00034671
0.869,0.00548145
0.86925,0.00634471
0.8695,0.0150259
0.86975,0.0118643
0.87,0.0212941
0.87025,0.0164265
0.8705,0.0187594
0.87075,0.0170442
0.871,0.00440059
0.87125,-0.0101517
0.8715,-0.0181441
0.87175,-0.0332919
0.872,-0.0524328
0.87225,-0.0748782
0.8725,-0.0960582
0.87275,-0.115433
0.873,-0.135299
0.87325,-0.159832
0.8735,-0.173659
0.87375,-0.194548
0.874,-0.202883
0.87425,-0.210115
0.8745,-0.216
0.87475,-0.212932
0.875,-0.204881
0.87525,-0.186297
0.8755,-0.173936
0.87575,-0.148348
0.876,-0.117316
0.87625,-0.0890074
0.8765,-0.0579289
0.87675,-0.0159985
0.877,0.017378
0.87725,0.0519791
0.8775,0.0848642
0.87775,0.121928
0.878,0.149143
0.87825,0.166096
0.8785,0.186279
0.87875,0.203583
0.879,0.216893
0.87925,0.222
0.8795,0.22361
0.87975,0.217257
0.88,0.207945
0.88025,0.195493
0.8805,0.179524
0.88075,0.152526
0.881,0.131642
0.88125,0.110147
0.8815,0.0896128
0.88175,0.0684064
0.882,0.0481305
0.88225,0.0327093
0.8825,0.0224306
0.88275,0.0119082
0.883,0.000532388
0.88325,-0.0029086
0.8835,-0.00703909
0.88375,-0.0030101
0.884,-0.00696344
0.88425,-0.00136131
0.8845,0.00637358
0.88475,0.00391416
0.885,0.0173475
0.88525,0.0114606
0.8855,0.0156769
0.88575,0.0182225
0.886,0.0184894
0.88625,0.00642198
0.8865,0.00331168
0.88675,-0.0073918
0.887,-0.0217116
0.88725,-0.0470788
0.8875,-0.0675205
0.88775,-0.0801587
0.888,-0.104232
0.88825,-0.124992
0.8885,-0.151731
0.88875,-0.172078
0.889,-0.185939
0.88925,-0.201144
0.8895,-0.20202
0.88975,-0.207207
0.89,-0.214096
0.89025,-0.205491
0.8905,-0.200332
0.89075,-0.177435
0.891,-0.157428
0.89125,-0.135154
0.8915,-0.10441
0.89175,-0.0726963
0.892,-0.0429753
0.89225,-0.00620085
0.8925,0.0303615
0.89275,0.0682078
0.893,0.104064
0.89325,0.13121
0.8935,0.157329
0.89375,0.180907
0.894,0.201455
0.89425,0.208858
0.8945,0.215222
0.89475,0.220513
0.895,0.217961
0.89525,0.215592
0.8955,0.196057
0.89575,0.180704
0.896,0.170753
0.89625,0.151859
0.8965,0.126973
0.89675,0.108634
0.897,0.0836712
0.89725,0.0617248
0.8975,0.0414903
0.89775,0.0302354
0.898,0.0185897
0.89825,0.00554889
0.8985,-0.000971921
0.89875,-0.00447481
0.899,-0.00912155
0.89925,-0.00556142
0.8995,-0.00828345
0.89975,0.00465884
0.9,0.00926731
0.90025,0.0147935
0.9005,0.0151276
0.90075,0.0144868
0.901,0.0184176
0.90125,0.0127366
0.9015,0.0142717
0.90175,0.00322477
0.902,-0.0033396
0.90225,-0.0182836
0.9025,-0.0326718
0.90275,-0.0566333
0.903,-0.0739033
0.90325,-0.0920192
0.9035,-0.114183
0.90375,-0.133834
0.904,-0.15895
0.90425,-0.174612
0.9045,-0.194117
0.90475,-0.205405
0.905,-0.212536
0.90525,-0.211011
0.9055,-0.210461
0.90575,-0.204334
0.906,-0.188812
0.90625,-0.168553
0.9065,-0.145801
0.90675,-0.122195
0.907,-0.0863301
0.90725,-0.0558313
0.9075,-0.0201153
0.90775,0.0164066
0.908,0.0489929
0.90825,0.0869858
0.9085,0.117745
0.90875,0.143737
0.909,0.165399
0.90925,0.190801
0.9095,0.208677
0.90975,0.216867
0.91,0.225675
0.91025,0.222939
0.9105,0.211748
0.91075,0.205716
0.911,0.189665
0.91125,0.173659
0.9115,0.161409
0.91175,0.139485
0.912,0.119588
0.91225,0.0930569
0.9125,0.0705417
0.91275,0.05213
0.913,0.033857
0.91325,0.0192635
0.9135,0.00451525
0.91375,-0.000369838
0.914,-0.00235806
0.91425,-0.00885843
0.9145,-0.0116064
0.91475,-0.0049994
0.915,-0.00232746
0.91525,-0.00130591
0.9155,0.00697245
0.91575,0.0103805
0.916,0.0178434
0.91625,0.0222925
0.9165,0.0216113
0.91675,0.0124268
0.917,0.0118264
0.91725,0.00484191
0.9175,-0.0140042
0.91775,-0.0213508
0.918,-0.0441366
0.91825,-0.0589854
0.9185,-0.0778379
0.91875,-0.102939
0.919,-0.123493
0.91925,-0.146319
0.9195,-0.170839
0.91975,-0.178245
0.92,-0.198691
0.92025,-0.207806
0.9205,-0.215808
0.92075,-0.209827
0.921,-0.208884
0.92125,-0.196046
0.9215,-0.178747
0.92175,-0.161541
0.922,-0.139604
0.92225,-0.103488
0.9225,-0.0732621
0.92275,-0.041843
0.923,-0.011078
0.92325,0.0248766
0.9235,0.0607205
0.92375,0.0995846
0.924,0.131469
0.92425,0.159505
0.9245,0.175469
0.92475,0.198234
0.925,0.215679
0.92525,0.214861
0.9255,0.22124
0.92575,0.21924
0.926,0.213844
0.92625,0.20233
0.9265,0.190222
0.92675,0.172128
0.927,0.149692
0.92725,0.125631
0.9275,0.10107
0.92775,0.0820544
0.928,0.0678096
0.92825,0.0467581
0.9285,0.0250015
0.92875,0.0115983
0.929,0.00746741
0.92925,-0.00628902
0.9295,-0.00699676
0.92975,-0.00571535
0.93,-0.00405781
0.93025,-0.00312317
0.9305,-0.00271107
0.93075,0.000576449
0.931,0.0110947
0.93125,0.0111361
0.9315,0.0147717
0.93175,0.0144335
0.932,0.0138233
0.93225,0.0154624
0.9325,0.00543417
0.93275,0.000856291
0.933,-0.0209016
0.93325,-0.0352394
0.9335,-0.0535624
0.93375,-0.0690178
0.934,-0.0951976
0.93425,-0.112396
0.9345,-0.138908
0.93475,-0.160928
0.935,-0.171759
0.93525,-0.192876
0.9355,-0.204272
0.93575,-0.208862
0.936,-0.21595
0.93625,-0.206475
0.9365,-0.199957
0.93675,-0.192334
0.937,-0.175765
0.93725,-0.148364
0.9375,-0.122104
0.93775,-0.0952585
0.938,-0.0611808
0.93825,-0.0246023
0.9385,0.0134812
0.93875,0.0494903
0.939,0.0795818
0.93925,0.111687
0.9395,0.141148
0.93975,0.163546
0.94,0.186696
0.94025,0.204432
0.9405,0.215067
0.94075,0.221425
0.941,0.21852
0.94125,0.212281
0.9415,0.205096
0.94175,0.199342
0.942,0.177473
0.94225,0.163647
0.9425,0.138035
0.94275,0.118127
0.943,0.0957865
0.94325,0.0779837
0.9435,0.0587221
0.94375,0.0402989
0.944,0.0241031
0.94425,0.00702777
0.9445,0.00570741
0.94475,-0.00790884
0.945,-0.0109003
0.94525,-0.0126617
0.9455,-0.00933122
0.94575,0.00083915
0.946,-0.00320427
0.94625,0.0101422
0.9465,0.00964537
0.94675,0.0166404
0.947,0.015381
0.94725,0.0182374
0.9475,0.0145145
0.94775,0.00980761
0.948,-0.00247583
0.94825,-0.0138005
0.9485,-0.0280105
0.94875,-0.0387176
0.949,-0.0561846
0.94925,-0.0787993
0.9495,-0.105563
0.94975,-0.127454
0.95,-0.147635
0.95025,-0.165215
0.9505,-0.177297
0.95075,-0.197545
0.951,-0.202547
0.95125,-0.210199
0.9515,-0.214222
0.95175,-0.212081
0.952,-0.196674
0.95225,-0.179492
0.9525,-0.164147
0.95275,-0.137996
0.953,-0.106709
0.95325,-8.12E-02
0.9535,-0.0428739
0.95375,-0.00990991
0.954,0.0296411
0.95425,0.0635203
0.9545,0.0965295
0.95475,0.127933
0.955,0.156276
0.95525,0.176228
0.9555,0.198145
0.95575,0.208262
0.956,0.219925
0.95625,0.226374
0.9565,0.223552
0.95675,0.213203
0.957,0.198552
0.95725,0.184204
0.9575,0.174723
0.95775,0.155625
0.958,0.129265
0.95825,0.105188
0.9585,0.0841202
0.95875,0.0626807
0.959,0.0426295
0.95925,0.0360129
0.9595,0.0205395
0.95975,0.00981001
0.96,-0.0026986
0.96025,-0.00972513
0.9605,-0.00485237
0.96075,-0.0019584
0.961,-0.00550968
0.96125,-0.00352819
0.9615,0.00430114
0.96175,0.0140021
0.962,0.0105164
0.96225,0.0224161
0.9625,0.0170151
0.96275,0.0149417
0.963,0.0138632
0.96325,0.0110839
0.9635,-0.00393967
0.96375,-0.0158033
0.964,-0.0251144
0.96425,-0.052206
0.9645,-0.063392
0.96475,-0.09135
0.965,-0.114979
0.96525,-0.128255
0.9655,-1.57E-01
0.96575,-0.175512
0.966,-0.187153
0.96625,-0.19771
0.9665,-0.203461
0.96675,-0.205305
0.967,-0.208588
0.96725,-0.200728
0.9675,-0.184887
0.96775,-0.172247
0.968,-0.148167
0.96825,-0.120804
0.9685,-0.0940927
0.96875,-0.0608781
0.969,-0.0210297
0.96925,0.0114419
0.9695,0.0486052
0.96975,0.0826908
0.97,0.112514
0.97025,0.139236
0.9705,0.171364
0.97075,0.194065
0.971,0.204157
0.97125,0.218229
0.9715,0.22459
0.97175,0.222008
0.972,0.226771
0.97225,0.209844
0.9725,0.204374
0.97275,0.185113
0.973,0.163274
0.97325,0.146241
0.9735,0.125242
0.97375,0.106653
0.974,0.0804348
0.97425,0.0638161
0.9745,0.0415943
0.97475,0.0286938
0.975,0.0134969
0.97525,0.010091
0.9755,0.00251221
0.97575,-0.000304597
0.976,-0.000732475
0.97625,-0.00521209
0.9765,0.00254719
0.97675,0.00813147
0.977,0.0119816
0.97725,0.0157223
0.9775,0.0263726
0.97775,0.0216891
0.978,0.0215137
0.97825,0.0253471
0.9785,0.0160949
0.97875,0.0108767
0.979,-0.00320678
0.97925,-0.0192011
0.9795,-0.0365888
0.97975,-0.0538114
0.98,-0.0676321
0.98025,-0.0963729
0.9805,-0.112519
0.98075,-0.135014
0.981,-0.157187
0.98125,-0.169085
0.9815,-0.188247
0.98175,-0.200746
0.982,-0.204419
0.98225,-0.204793
0.9825,-0.203473
0.98275,-0.187594
0.983,-0.178967
0.98325,-0.149475
0.9835,-0.129658
0.98375,-0.0990579
0.984,-0.0750672
0.98425,-0.0358943
0.9845,0.00138947
0.98475,0.0323339
0.985,0.0708632
0.98525,0.107529
0.9855,0.138013
0.98575,0.167002
0.986,0.183543
0.98625,0.207923
0.9865,0.217192
0.98675,0.229126
0.987,0.231935
0.98725,0.23443
0.9875,0.226511
0.98775,0.21348
0.988,0.199385
0.98825,0.186007
0.9885,0.163652
0.98875,0.146047
0.989,0.125454
0.98925,0.106648
0.9895,0.0787355
0.98975,0.0662873
0.99,0.0420242
0.99025,0.0373222
0.9905,0.0223785
0.99075,0.0189677
0.991,0.00710415
0.99125,0.00747235
0.9915,0.00635098
0.99175,0.00842027
0.992,0.0136256
0.99225,0.0215382
0.9925,0.0314482
0.99275,0.0362503
0.993,0.0359774
0.99325,0.0380254
0.9935,0.0382365
0.99375,0.0368105
0.994,0.0314871
0.99425,0.0176787
0.9945,0.00407754
0.99475,-0.00615343
0.995,-0.029349
0.99525,-4.52E-02
0.9955,-0.0707167
0.99575,-0.0862022
0.996,-0.113481
0.99625,-0.129288
0.9965,-0.148961
0.99675,-0.163518
0.997,-0.178995
0.99725,-0.182799
0.9975,-0.191445
0.99775,-0.18774
0.998,-0.183728
0.99825,-0.164343
0.9985,-0.150097
0.99875,-0.128587
0.999,-0.10519
0.99925,-0.0732705
0.9995,-0.0422828
0.99975,-0.00905416
1,0.0356355
1.00025,0.0666013
1.0005,0.103836
1.00075,0.136523
1.001,0.163551
1.00125,0.194698
1.0015,0.212855
1.00175,0.227206
1.002,0.240362
1.00225,0.253398
1.0025,0.249809
1.00275,0.252059
1.003,0.238324
1.00325,0.224336
1.0035,0.214445
1.00375,0.193679
1.004,0.170166
1.00425,0.156405
1.0045,0.129646
1.00475,0.106836
1.005,0.0892489
1.00525,0.0793292
1.0055,0.0605569
1.00575,0.0501532
1.006,0.0408593
1.00625,0.032001
1.0065,0.0246238
1.00675,0.0257606
1.007,0.0316831
1.00725,0.0321355
1.0075,0.0367607
1.00775,0.0493645
1.008,0.0525055
1.00825,0.0503763
1.0085,0.0587505
1.00875,0.0563289
1.009,0.0574946
1.00925,0.0506751
1.0095,0.0494559
1.00975,0.0382633
1.01,0.0237579
1.01025,0.00276014
1.0105,-0.00784758
1.01075,-0.0366329
1.011,-0.0514399
1.01125,-0.0745807
1.0115,-0.0905082
1.01175,-0.117188
1.012,-0.130677
1.01225,-0.147553
1.0125,-0.156805
1.01275,-0.158393
1.013,-0.15896
1.01325,-0.155174
1.0135,-0.145719
1.01375,-0.132736
1.014,-0.116988
1.01425,-0.0890168
1.0145,-0.0565442
1.01475,-0.0336239
1.015,0.00213014
1.01525,0.041039
1.0155,0.0782405
1.01575,0.117799
1.016,0.142374
1.01625,0.181204
1.0165,0.212208
1.01675,0.231491
1.017,0.249536
1.01725,0.270928
1.0175,0.281076
1.01775,0.283553
1.018,0.28683
1.01825,0.282358
1.0185,0.263289
1.01875,0.251664
1.019,0.239512
1.01925,0.217561
1.0195,0.197653
1.01975,0.174004
1.02,0.156532
1.02025,0.133502
1.0205,0.116514
1.02075,0.101346
1.021,0.0840819
1.02125,0.074034
1.0215,0.0690424
1.02175,0.0617451
1.022,0.0695764
1.02225,0.0679694
1.0225,0.07383
1.02275,0.0744899
1.023,0.0775084
1.02325,0.0857447
1.0235,0.0932185
1.02375,0.0967041
1.024,0.0939217
1.02425,0.0968276
1.0245,0.0912461
1.02475,0.0847106
1.025,0.0801744
1.02525,0.0654732
1.0255,0.058171
1.02575,0.0408444
1.026,0.0148094
1.02625,-0.00299382
1.0265,-0.0201805
1.02675,-0.0429144
1.027,-0.0624981
1.02725,-0.0811465
1.0275,-0.100072
1.02775,-0.109361
1.028,-0.113703
1.02825,-0.114562
1.0285,-0.114223
1.02875,-0.110681
1.029,-0.099862
1.02925,-0.0847826
1.0295,-0.0573901
1.02975,-0.0365483
1.03,-0.00468504
1.03025,0.0360422
1.0305,0.0693479
1.03075,0.106351
1.031,0.141174
1.03125,0.180565
1.0315,0.206112
1.03175,0.237256
1.032,0.272702
1.03225,0.286402
1.0325,0.309112
1.03275,0.324326
1.033,0.329444
1.03325,0.333196
1.0335,0.329054
1.03375,0.328003
1.034,0.309409
1.03425,0.300946
1.0345,0.281954
1.03475,0.262779
1.035,0.241114
1.03525,0.219314
1.0355,0.193937
1.03575,0.179588
1.036,0.167115
1.03625,0.14346
1.0365,0.136544
1.03675,0.125772
1.037,0.120132
1.03725,0.117824
1.0375,0.119872
1.03775,0.118696
1.038,0.12387
1.03825,0.133699
1.0385,0.13629
1.03875,0.142182
1.039,0.154228
1.03925,0.15204
1.0395,0.153972
1.03975,0.159039
1.04,0.154674
1.04025,0.141042
1.0405,0.13722
1.04075,0.122811
1.041,0.102665
1.04125,0.085931
1.0415,0.0655277
1.04175,0.0474661
1.042,0.0311597
1.04225,0.00619305
1.0425,-0.00842619
1.04275,-0.0308205
1.043,-0.040518
1.04325,-0.0512934
1.0435,-0.0561059
1.04375,-0.0555273
1.044,-0.0542808
1.04425,-0.03963
1.0445,-0.0303973
1.04475,-0.00993988
1.045,0.0152195
1.04525,0.0450728
1.0455,0.0782746
1.04575,0.115861
1.046,0.151514
1.04625,0.190613
1.0465,0.225497
1.04675,0.261421
1.047,0.293719
1.04725,0.323982
1.0475,0.346611
1.04775,0.364113
1.048,0.380151
1.04825,0.397023
1.0485,0.403239
1.04875,0.399717
1.049,0.398249
1.04925,0.390675
1.0495,0.376926
1.04975,0.356841
1.05,0.342956
1.05025,0.325557
1.0505,0.305407
1.05075,0.282012
1.051,0.26462
1.05125,0.247931
1.0515,0.227975
1.05175,0.215979
1.052,0.209923
1.05225,0.196063
1.0525,0.195998
1.05275,0.199739
1.053,0.200196
1.05325,0.199994
1.0535,0.208217
1.05375,0.216906
1.054,0.213839
1.05425,0.225358
1.0545,0.226481
1.05475,0.228304
1.055,0.23819
1.05525,0.228773
1.0555,0.228674
1.05575,0.21559
1.056,0.207097
1.05625,0.199869
1.0565,0.179398
1.05675,0.163743
1.057,0.138601
1.05725,0.118666
1.0575,0.104746
1.05775,0.0782292
1.058,0.0610197
1.05825,0.0474322
1.0585,0.0419896
1.05875,0.0331409
1.059,0.0251522
1.05925,0.0300605
1.0595,0.041793
1.05975,0.0453582
1.06,0.0651946
1.06025,0.0879761
1.0605,0.120654
1.06075,0.145345
1.061,0.180541
1.06125,0.218081
1.0615,0.251292
1.06175,0.290384
1.062,0.332
1.06225,0.366417
1.0625,0.39914
1.06275,0.425557
1.063,0.448825
1.06325,0.466104
1.0635,0.477134
1.06375,0.485054
1.064,0.490418
1.06425,0.490359
1.0645,0.488027
1.06475,0.479335
1.065,0.459899
1.06525,0.44304
1.0655,0.425052
1.06575,0.404272
1.066,0.383248
1.06625,0.368099
1.0665,0.351859
1.06675,0.335381
1.067,0.313407
1.06725,0.306852
1.0675,0.296668
1.06775,0.292842
1.068,0.292062
1.06825,0.291034
1.0685,0.29708
1.06875,0.294472
1.069,0.310146
1.06925,0.311061
1.0695,0.314873
1.06975,0.32634
1.07,0.324325
1.07025,0.327168
1.0705,0.334346
1.07075,0.330705
1.071,0.328509
1.07125,0.310292
1.0715,0.30542
1.07175,0.292346
1.072,0.270322
1.07225,0.252087
1.0725,0.233774
1.07275,0.217415
1.073,0.195322
1.07325,0.179632
1.0735,0.161873
1.07375,0.147907
1.074,0.136345
1.07425,0.129307
1.0745,0.13201
1.07475,0.134899
1.075,0.148007
1.07525,0.159339
1.0755,0.185453
1.07575,0.203887
1.076,0.24014
1.07625,0.266743
1.0765,0.306443
1.07675,0.335938
1.077,0.376323
1.07725,0.418051
1.0775,0.449749
1.07775,0.487903
1.078,0.510732
1.07825,0.54423
1.0785,0.564337
1.07875,0.58139
1.079,0.596725
1.07925,0.60338
1.0795,0.603803
1.07975,0.597306
1.08,0.588487
1.08025,0.57702
1.0805,0.557826
1.08075,0.546879
1.081,0.525445
1.08125,0.505446
1.0815,0.486295
1.08175,0.462304
1.082,0.453457
1.08225,0.437301
1.0825,0.419778
1.08275,0.408047
1.083,0.406703
1.08325,0.401845
1.0835,0.402656
1.08375,0.401411
1.084,0.402792
1.08425,0.406647
1.0845,0.422416
1.08475,0.422869
1.085,0.435115
1.08525,0.434526
1.0855,0.441345
1.08575,0.438133
1.086,0.438
1.08625,0.432761
1.0865,0.429144
1.08675,0.425596
1.087,0.412221
1.08725,0.390318
1.0875,0.378415
1.08775,0.360454
1.088,0.338635
1.08825,0.320362
1.0885,0.293401
1.08875,0.274674
1.089,0.263461
1.08925,0.249687
1.0895,0.249661
1.08975,0.244503
1.09,0.240182
1.09025,0.252269
1.0905,0.261089
1.09075,0.281258
1.091,0.305639
1.09125,0.329937
1.0915,0.360338
1.09175,0.393181
1.092,0.432662
1.09225,0.465531
1.0925,0.50922
1.09275,0.543112
1.093,0.576497
1.09325,0.606833
1.0935,0.643525
1.09375,0.65905
1.094,0.684318
1.09425,0.697613
1.0945,0.703845
1.09475,0.708321
1.095,0.70667
1.09525,0.702641
1.0955,0.699335
1.09575,0.684803
1.096,0.662437
1.09625,0.644358
1.0965,0.629867
1.09675,0.612924
1.097,0.592349
1.09725,0.568323
1.0975,0.552407
1.09775,0.539755
1.098,0.528107
1.09825,0.516199
1.0985,0.517312
1.09875,0.514003
1.099,0.508746
1.09925,0.519566
1.0995,0.514575
1.09975,0.524581
1.1,0.527634
1.10025,0.537166
1.1005,0.545247
1.10075,0.546922
1.101,0.553475
1.10125,0.557632
1.1015,0.552576
1.10175,0.540857
1.102,0.536819
1.10225,0.52151
1.1025,0.513379
1.10275,0.494609
1.103,0.474072
1.10325,0.454131
1.1035,0.438132
1.10375,0.413439
1.104,0.397217
1.10425,0.384516
1.1045,0.370192
1.10475,0.358668
1.105,0.348518
1.10525,0.349844
1.1055,0.356101
1.10575,0.36232
1.106,0.376324
1.10625,0.400298
1.1065,0.420167
1.10675,0.44742
1.107,0.483381
1.10725,0.5142
1.1075,0.556124
1.10775,0.593264
1.108,0.625381
1.10825,0.663683
1.1085,0.702384
1.10875,0.72707
1.109,0.755919
1.10925,0.778592
1.1095,0.791748
1.10975,0.804123
1.11,0.816744
1.11025,0.813718
1.1105,0.809599
1.11075,0.802141
1.111,0.795062
1.11125,0.777652
1.1115,0.754175
1.11175,0.742074
1.112,0.717232
1.11225,0.703359
1.1125,0.675115
1.11275,0.660539
1.113,0.642395
1.11325,0.635886
1.1135,0.622337
1.11375,0.615747
1.114,0.60598
1.11425,0.609479
1.1145,0.612723
1.11475,0.608734
1.115,0.617336
1.11525,0.626942
1.1155,0.629172
1.11575,0.635586
1.116,0.637252
1.11625,0.641625
1.1165,0.645201
1.11675,0.64498
1.117,0.643217
1.11725,0.632192
1.1175,0.623097
1.11775,0.60873
1.118,0.592651
1.11825,0.57978
1.1185,0.554029
1.11875,0.532207
1.119,0.515736
1.11925,0.499832
1.1195,0.474309
1.11975,0.457873
1.12,0.446318
1.12025,0.436746
1.1205,0.435834
1.12075,0.435297
1.121,0.439496
1.12125,0.458302
1.1215,0.469341
1.12175,0.493566
1.122,0.5166
1.12225,0.543168
1.1225,0.579759
1.12275,0.615172
1.123,0.651442
1.12325,0.691887
1.1235,0.72445
1.12375,0.761796
1.124,0.79191
1.12425,0.820583
1.1245,0.842134
1.12475,0.858304
1.125,0.880237
1.12525,0.890259
1.1255,0.88866
1.12575,0.886776
1.126,0.878058
1.12625,0.870748
1.1265,0.862801
1.12675,0.845694
1.127,0.825537
1.12725,0.80244
1.1275,0.779647
1.12775,0.759207
1.128,0.738704
1.12825,0.723282
1.1285,0.708767
1.12875,0.695195
1.129,0.681135
1.12925,0.672415
1.1295,0.672283
1.12975,0.668957
1.13,0.674894
1.13025,0.682238
1.1305,0.678982
1.13075,0.685713
1.131,0.694836
1.13125,0.699716
1.1315,0.700134
1.13175,0.703785
1.132,0.699578
1.13225,0.700812
1.1325,0.692397
1.13275,0.680077
1.133,0.668499
1.13325,0.656407
1.1335,0.639205
1.13375,0.617838
1.134,0.59994
1.13425,0.582173
1.1345,0.559944
1.13475,0.536354
1.135,0.514809
1.13525,0.503218
1.1355,0.487105
1.13575,0.482117
1.136,0.478571
1.13625,0.48207
1.1365,0.496702
1.13675,0.502609
1.137,0.5198
1.13725,0.54101
1.1375,0.57047
1.13775,0.599986
1.138,0.637639
1.13825,0.667066
1.1385,0.705899
1.13875,0.747481
1.139,0.775915
1.13925,0.808655
1.1395,0.83645
1.13975,0.869331
1.14,0.883838
1.14025,0.902565
1.1405,0.908074
1.14075,0.915886
1.141,0.922294
1.14125,0.910649
1.1415,0.906016
1.14175,0.895947
1.142,0.876624
1.14225,0.862067
1.1425,0.83679
1.14275,0.819276
1.143,0.795333
1.14325,0.768593
1.1435,0.748831
1.14375,0.730811
1.144,0.723666
1.14425,0.705105
1.1445,0.696666
1.14475,0.693556
1.145,0.689356
1.14525,0.692317
1.1455,0.688809
1.14575,0.695029
1.146,0.701978
1.14625,0.69907
1.1465,0.708619
1.14675,0.714339
1.147,0.712421
1.14725,0.710768
1.1475,0.708162
1.14775,0.700807
1.148,0.69377
1.14825,0.678446
1.1485,0.665451
1.14875,0.646921
1.149,0.630655
1.14925,0.613536
1.1495,0.583745
1.14975,0.560168
1.15,0.541395
1.15025,0.523056
1.1505,0.500779
1.15075,0.491793
1.151,0.481887
1.15125,0.470624
1.1515,0.475052
1.15175,0.475504
1.152,0.489242
1.15225,0.500488
1.1525,0.519706
1.15275,0.539391
1.153,0.574372
1.15325,0.597404
1.1535,0.63413
1.15375,0.668012
1.154,0.709187
1.15425,0.742022
1.1545,0.775155
1.15475,0.805319
1.155,0.826083
1.15525,0.850483
1.1555,0.873177
1.15575,0.880032
1.156,0.891862
1.15625,0.890616
1.1565,0.891751
1.15675,0.882395
1.157,0.873837
1.15725,0.849022
1.1575,0.834184
1.15775,0.80996
1.158,0.788121
1.15825,0.764446
1.1585,0.750825
1.15875,0.728864
1.159,0.70609
1.15925,0.686651
1.1595,0.671897
1.15975,0.661183
1.16,0.649718
1.16025,0.644924
1.1605,0.644719
1.16075,0.644377
1.161,0.646316
1.16125,0.642388
1.1615,0.651717
1.16175,0.657361
1.162,0.655487
1.16225,0.659098
1.1625,0.656865
1.16275,0.655844
1.163,0.652442
1.16325,0.640311
1.1635,0.632156
1.16375,0.621391
1.164,0.596118
1.16425,0.582006
1.1645,0.56153
1.16475,0.541691
1.165,0.509677
1.16525,0.494253
1.1655,0.472103
1.16575,0.452184
1.166,0.430439
1.16625,0.41364
1.1665,0.408913
1.16675,0.402225
1.167,0.406669
1.16725,0.406003
1.1675,0.422707
1.16775,0.437986
1.168,0.457295
1.16825,0.475528
1.1685,0.511833
1.16875,0.53587
1.169,0.566228
1.16925,0.600959
1.1695,0.634595
1.16975,0.668458
1.17,0.700414
1.17025,0.732808
1.1705,0.749171
1.17075,0.773036
1.171,0.783544
1.17125,0.798421
1.1715,0.804042
1.17175,0.800507
1.172,0.790676
1.17225,0.783102
1.1725,0.766796
1.17275,0.748879
1.173,0.730958
1.17325,0.702009
1.1735,0.685231
1.17375,0.655847
1.174,0.636793
1.17425,0.612613
1.1745,0.590013
1.17475,0.573103
1.175,0.558545
1.17525,0.553314
1.1755,0.543561
1.17575,0.53314
1.176,0.529954
1.17625,0.532476
1.1765,0.538278
1.17675,0.534858
1.177,0.535796
1.17725,0.539869
1.1775,0.546942
1.17775,0.547478
1.178,0.543918
1.17825,0.536558
1.1785,0.536034
1.17875,0.522407
1.179,0.510035
1.17925,0.494662
1.1795,0.46701
1.17975,0.447157
1.18,0.424619
1.18025,0.406645
1.1805,0.377846
1.18075,0.354403
1.181,0.336302
1.18125,0.311165
1.1815,0.298177
1.18175,0.284104
1.182,0.280153
1.18225,0.268107
1.1825,0.276556
1.18275,0.278845
1.183,0.29548
1.18325,0.304817
1.1835,0.331846
1.18375,0.357729
1.184,0.385712
1.18425,0.413091
1.1845,0.445504
1.18475,0.483327
1.185,0.510257
1.18525,0.546269
1.1855,0.572809
1.18575,0.595944
1.186,0.622514
1.18625,0.638454
1.1865,0.653436
1.18675,0.659033
1.187,0.656898
1.18725,0.647044
1.1875,0.646849
1.18775,0.630336
1.188,0.612755
1.18825,0.596231
1.1885,0.572826
1.18875,0.549511
1.189,0.51806
1.18925,0.49181
1.1895,0.475437
1.18975,0.453166
1.19,0.430596
1.19025,0.41601
1.1905,0.39666
1.19075,0.39382
1.191,0.384536
1.19125,0.374545
1.1915,0.37345
1.19175,0.376021
1.192,0.375791
1.19225,0.375758
1.1925,0.385236
1.19275,0.378334
1.193,0.379165
1.19325,0.378201
1.1935,0.372694
1.19375,0.368036
1.194,0.364749
1.19425,0.352692
1.1945,0.331755
1.19475,0.315521
1.195,0.29149
1.19525,0.272698
1.1955,0.247516
1.19575,0.22341
1.196,0.198514
1.19625,0.17479
1.1965,0.152994
1.19675,0.135547
1.197,0.120263
1.19725,0.104096
1.1975,0.104161
1.19775,0.0944149
1.198,0.0985244
1.19825,0.11127
1.1985,0.122582
1.19875,0.139933
1.199,0.166289
1.19925,0.189903
1.1995,0.217284
1.19975,0.254268
1.2,0.286519
1.20025,0.321426
1.2005,0.351614
1.20075,0.381085
1.201,0.409519
1.20125,0.429697
1.2015,0.447418
1.20175,0.464795
1.202,0.474091
1.20225,0.46955
1.2025,0.470026
1.20275,0.462231
1.203,0.456233
1.20325,0.440464
1.2035,0.416739
1.20375,0.395532
1.204,0.3699
1.20425,0.351116
1.2045,0.328481
1.20475,0.298595
1.205,0.27305
1.20525,0.250809
1.2055,0.234933
1.20575,0.221285
1.206,0.212976
1.20625,0.195071
1.2065,0.196416
1.20675,0.188171
1.207,0.185329
1.20725,0.190745
1.2075,0.191681
1.20775,0.194628
1.208,0.19434
1.20825,0.193139
1.2085,0.189099
1.20875,0.190411
1.209,0.17955
1.20925,0.180569
1.2095,0.169187
1.20975,0.148574
1.21,0.1307
1.21025,0.117716
1.2105,0.094428
1.21075,0.069473
1.211,0.0461979
1.21125,0.0203682
1.2115,-0.00923508
1.21175,-0.0240456
1.212,-0.0477087
1.21225,-0.0633578
1.2125,-0.078119
1.21275,-0.0908915
1.213,-0.0916967
1.21325,-0.0896452
1.2135,-0.0901418
1.21375,-0.0737723
1.214,-0.0627671
1.21425,-0.0437573
1.2145,-0.0124967
1.21475,0.0157566
1.215,0.038724
1.21525,0.0780975
1.2155,0.108897
1.21575,0.137702
1.216,0.167065
1.21625,0.196926
1.2165,0.227666
1.21675,0.241029
1.217,0.258758
1.21725,0.274681
1.2175,0.275727
1.21775,0.281107
1.218,0.271558
1.21825,0.264165
1.2185,0.252299
1.21875,0.241832
1.219,0.220029
1.21925,0.191741
1.2195,0.166864
1.21975,0.142374
1.22,0.117047
1.22025,0.0996493
1.2205,0.0741688
1.22075,0.0548521
1.221,0.0402271
1.22125,0.0266169
1.2215,0.0111765
1.22175,0.00183172
1.222,0.000507455
1.22225,-0.00674686
1.2225,-0.00626423
1.22275,0.000594096
1.223,0.00300171
1.22325,0.00507275
1.2235,0.00327038
1.22375,0.00745288
1.224,-0.00236239
1.22425,-0.000590631
1.2245,-0.00329193
1.22475,-0.0126872
1.225,-0.0250197
1.22525,-0.0398497
1.2255,-0.0601037
1.22575,-0.084082
1.226,-0.102967
1.22625,-0.133281
1.2265,-0.151894
1.22675,-0.178691
1.227,-0.199601
1.22725,-0.220952
1.2275,-0.242077
1.22775,-0.254787
1.228,-0.263853
1.22825,-0.27245
1.2285,-0.280244
1.22875,-0.272204
1.229,-0.265045
1.22925,-0.255561
1.2295,-0.233422
1.22975,-0.213276
1.23,-0.18342
1.23025,-0.151505
1.2305,-0.122184
1.23075,-0.0869813
1.231,-0.051203
1.23125,-0.0228654
1.2315,0.00264548
1.23175,0.0321319
1.232,0.0614468
1.23225,0.0800042
1.2325,0.0891807
1.23275,0.104726
1.233,0.109572
1.23325,0.104651
1.2335,0.0964626
1.23375,0.0896962
1.234,0.0756975
1.23425,0.0553229
1.2345,0.0315315
1.23475,0.0126138
1.235,-0.0137148
1.23525,-0.0364076
1.2355,-0.0577446
1.23575,-0.0780431
1.236,-0.0976587
1.23625,-0.117733
1.2365,-0.132316
1.23675,-0.145246
1.237,-0.158428
1.23725,-0.163431
1.2375,-0.165831
1.23775,-0.16113
1.238,-0.159474
1.23825,-0.164999
1.2385,-0.158795
1.23875,-0.155994
1.239,-0.150535
1.23925,-0.149053
1.2395,-0.154153
1.23975,-0.154608
1.24,-0.167496
1.24025,-0.172848
1.2405,-0.188638
1.24075,-0.208935
1.241,-0.225281
1.24125,-0.240319
1.2415,-0.267068
1.24175,-0.29109
1.242,-0.315368
1.24225,-0.341647
1.2425,-0.359811
1.24275,-3.79E-01
1.243,-0.395951
1.24325,-0.40983
1.2435,-0.414425
1.24375,-0.420525
1.244,-0.418306
1.24425,-0.416446
1.2445,-0.395679
1.24475,-0.378327
1.245,-0.3572
1.24525,-0.334854
1.2455,-0.311236
1.24575,-0.274497
1.246,-0.245589
1.24625,-0.206278
1.2465,-0.17107
1.24675,-0.13769
1.247,-0.109449
1.24725,-0.0872201
1.2475,-0.0635681
1.24775,-0.0418301
1.248,-0.0313631
1.24825,-0.020029
1.2485,-0.014517
1.24875,-0.0261314
1.249,-0.0300047
1.24925,-0.0423503
1.2495,-0.0575138
1.24975,-0.0711609
1.25,-0.0939492
1.25025,-0.121446
1.2505,-0.141281
1.25075,-0.167907
1.251,-0.183441
1.25125,-0.201865
1.2515,-0.227304
1.25175,-0.243889
1.252,-0.25759
1.25225,-0.259778
1.2525,-0.268306
1.25275,-0.274998
1.253,-0.275938
1.25325,-0.275471
1.2535,-0.265764
1.25375,-0.266961
1.254,-0.262623
1.25425,-0.258856
1.2545,-0.257697
1.25475,-0.259548
1.255,-0.253489
1.25525,-0.260511
1.2555,-0.264203
1.25575,-0.283375
1.256,-0.293956
1.25625,-0.304892
1.2565,-0.330606
1.25675,-0.344909
1.257,-0.370485
1.25725,-0.396476
1.2575,-0.410633
1.25775,-0.434478
1.258,-0.457434
1.25825,-0.472323
1.2585,-0.482225
1.25875,-0.49393
1.259,-0.499911
1.25925,-0.499603
1.2595,-0.494913
1.25975,-0.485214
1.26,-0.46695
1.26025,-0.449462
1.2605,-0.430506
1.26075,-0.40218
1.261,-0.361771
1.26125,-0.329714
1.2615,-0.298295
1.26175,-0.263599
1.262,-0.233247
1.26225,-0.193743
1.2625,-0.162954
1.26275,-0.138632
1.263,-0.120305
1.26325,-0.0996343
1.2635,-0.0889899
1.26375,-0.0852865
1.264,-0.0787964
1.26425,-0.0883403
1.2645,-0.0955677
1.26475,-0.101294
1.265,-0.11595
1.26525,-0.135352
1.2655,-0.160576
1.26575,-0.183358
1.266,-0.208263
1.26625,-0.227479
1.2665,-0.245711
1.26675,-0.261312
1.267,-0.282692
1.26725,-0.290039
1.2675,-0.306564
1.26775,-0.313838
1.268,-0.311538
1.26825,-0.312191
1.2685,-0.310475
1.26875,-0.314922
1.269,-0.310682
1.26925,-0.306918
1.2695,-0.296725
1.26975,-0.295237
1.27,-0.292057
1.27025,-0.28585
1.2705,-0.294418
1.27075,-0.300293
1.271,-0.304768
1.27125,-0.314059
1.2715,-0.328072
1.27175,-0.343949
1.272,-0.356723
1.27225,-0.384509
1.2725,-0.405374
1.27275,-0.421599
1.273,-0.44452
1.27325,-0.466143
1.2735,-0.486882
1.27375,-0.49354
1.274,-0.511944
1.27425,-0.513567
1.2745,-0.512474
1.27475,-0.511893
1.275,-0.509999
1.27525,-0.493469
1.2755,-0.473974
1.27575,-0.445517
1.276,-0.420439
1.27625,-0.394081
1.2765,-0.360428
1.27675,-0.322385
1.277,-0.289313
1.27725,-0.248777
1.2775,-0.211615
1.27775,-0.181732
1.278,-0.149983
1.27825,-0.126543
1.2785,-0.102425
1.27875,-0.0942729
1.279,-0.0793799
1.27925,-0.070286
1.2795,-0.0740936
1.27975,-0.0764028
1.28,-0.0885972
1.28025,-0.0951359
1.2805,-0.115256
1.28075,-0.139682
1.281,-0.158433
1.28125,-0.173326
1.2815,-0.199412
1.28175,-0.219094
1.282,-0.2306
1.28225,-0.250602
1.2825,-0.268004
1.28275,-0.278015
1.283,-0.286908
1.28325,-0.288706
1.2835,-0.29173
1.28375,-0.291659
1.284,-0.2854
1.28425,-0.281343
1.2845,-0.271312
1.28475,-0.267898
1.285,-0.260415
1.28525,-0.261189
1.2855,-0.260098
1.28575,-0.259339
1.286,-0.260006
1.28625,-0.262459
1.2865,-0.265909
1.28675,-0.282049
1.287,-0.291995
1.28725,-0.309146
1.2875,-0.327422
1.28775,-0.34917
1.288,-0.367319
1.28825,-0.393285
1.2885,-0.412301
1.28875,-0.43127
1.289,-0.44667
1.28925,-0.457722
1.2895,-0.46483
1.28975,-0.463516
1.29,-0.462067
1.29025,-0.463965
1.2905,-0.44603
1.29075,-0.427692
1.291,-0.409774
1.29125,-0.385341
1.2915,-0.353749
1.29175,-0.322736
1.292,-0.280659
1.29225,-0.245598
1.2925,-0.20794
1.29275,-0.174761
1.293,-0.142067
1.29325,-0.103676
1.2935,-0.075807
1.29375,-0.0541875
1.294,-0.0295693
1.29425,-0.0203886
1.2945,-0.011354
1.29475,-0.0106146
1.295,-0.00573144
1.29525,-0.00893954
1.2955,-0.0189679
1.29575,-0.0344825
1.296,-0.0576734
1.29625,-0.0705673
1.2965,-0.0905955
1.29675,-0.111845
1.297,-0.129115
1.29725,-0.154002
1.2975,-0.166703
1.29775,-0.186009
1.298,-0.197288
1.29825,-0.199553
1.2985,-0.213477
1.29875,-0.214743
1.299,-0.207819
1.29925,-0.206173
1.2995,-0.201592
1.29975,-0.200136
1.3,-0.188864
1.30025,-0.180713
1.3005,-0.173517
1.30075,-0.168717
1.301,-0.170604
1.30125,-0.17285
1.3015,-0.172872
1.30175,-0.17376
1.302,-0.187758
1.30225,-0.199265
1.3025,-0.217192
1.30275,-0.229581
1.303,-0.252924
1.30325,-0.265038
1.3035,-2.86E-01
1.30375,-0.30275
1.304,-0.326973
1.30425,-0.344225
1.3045,-0.352821
1.30475,-0.369312
1.305,-0.3696
1.30525,-0.367245
1.3055,-0.371999
1.30575,-0.357569
1.306,-0.345094
1.30625,-0.324162
1.3065,-0.299656
1.30675,-0.270686
1.307,-0.240659
1.30725,-0.199325
1.3075,-0.165649
1.30775,-0.126926
1.308,-0.0893282
1.30825,-0.0526458
1.3085,-0.0247835
1.30875,0.0120574
1.309,0.0333642
1.30925,0.0555481
1.3095,0.075226
1.30975,0.0862755
1.31,0.0928582
1.31025,0.0942704
1.3105,0.0943054
1.31075,0.0855761
1.311,0.0756108
1.31125,0.0609645
1.3115,0.0443822
1.31175,0.029031
1.312,0.00922483
1.31225,-0.0189926
1.3125,-0.0329025
1.31275,-0.0501024
1.313,-0.0673339
1.31325,-0.0834798
1.3135,-0.0854586
1.31375,-0.0961204
1.314,-0.0995222
1.31425,-0.0977569
1.3145,-0.103046
1.31475,-0.0946044
1.315,-0.0916437
1.31525,-0.0836612
1.3155,-0.0734277
1.31575,-0.0742423
1.316,-0.0627381
1.31625,-0.0566403
1.3165,-0.0567244
1.31675,-0.0592157
1.317,-0.0618452
1.31725,-0.0703919
1.3175,-0.0797485
1.31775,-0.0956075
1.318,-0.112514
1.31825,-0.122572
1.3185,-0.139549
1.31875,-0.165833
1.319,-0.184142
1.31925,-0.201457
1.3195,-0.217813
1.31975,-0.232509
1.32,-0.245731
1.32025,-0.258754
1.3205,-0.261136
1.32075,-0.259105
1.321,-0.250506
1.32125,-0.240682
1.3215,-0.21649
1.32175,-0.201724
1.322,-0.175732
1.32225,-0.139478
1.3225,-0.107764
1.32275,-0.0756674
1.323,-0.0342665
1.32325,0.00269719
1.3235,0.0351235
1.32375,0.0778513
1.324,0.109105
1.32425,0.136697
1.3245,0.160421
1.32475,0.182578
1.325,0.199454
1.32525,0.210878
1.3255,0.213785
1.32575,0.214328
1.326,0.209413
1.32625,0.198851
1.3265,0.183471
1.32675,0.167634
1.327,0.143755
1.32725,0.124057
1.3275,0.106341
1.32775,0.0843331
1.328,0.0696224
1.32825,0.0572081
1.3285,0.0377393
1.32875,0.0249114
1.329,0.0150649
1.32925,0.0179613
1.3295,0.0105485
1.32975,0.00571354
1.33,0.017824
1.33025,0.0128387
1.3305,0.0185726
1.33075,0.0307973
1.331,0.0354129
1.33125,0.0446764
1.3315,0.0491514
1.33175,0.0549344
1.332,0.0540115
1.33225,0.0452814
1.3325,0.0422147
1.33275,0.0309937
1.333,0.0229691
1.33325,0.00552685
1.3335,-0.00851788
1.33375,-0.0229048
1.334,-0.0505887
1.33425,-0.0669523
1.3345,-0.0855284
1.33475,-0.100482
1.335,-0.121029
1.33525,-0.134734
1.3355,-0.149308
1.33575,-0.149817
1.336,-0.153704
1.33625,-0.146546
1.3365,-0.144962
1.33675,-0.128083
1.337,-0.112431
1.33725,-0.0882761
1.3375,-0.0571757
1.33775,-0.0194687
1.338,0.0062359
1.33825,0.0429493
1.3385,0.0841803
1.33875,0.120754
1.339,0.155737
1.33925,0.191257
1.3395,0.216357
1.33975,0.24744
1.34,0.265603
1.34025,0.283521
1.3405,0.300526
1.34075,0.302292
1.341,0.309429
1.34125,0.301047
1.3415,0.295582
1.34175,0.287808
1.342,0.267224
1.34225,0.252988
1.3425,0.233596
1.34275,0.213296
1.343,0.19105
1.34325,0.177714
1.3435,0.156524
1.34375,0.135313
1.344,0.129142
1.34425,0.117893
1.3445,0.108837
1.34475,0.100066
1.345,0.103217
1.34525,0.101291
1.3455,0.105148
1.34575,0.102999
1.346,0.117012
1.34625,0.123652
1.3465,0.120268
1.34675,0.127645
1.347,0.135515
1.34725,0.137404
1.3475,0.137341
1.34775,0.126449
1.348,0.1219
1.34825,0.115657
1.3485,0.100962
1.34875,0.0793823
1.349,0.0588933
1.34925,0.039156
1.3495,0.0187343
1.34975,-0.000444571
1.35,-0.0172716
1.35025,-0.037803
1.3505,-0.05177
1.35075,-0.0670361
1.351,-0.0761625
1.35125,-0.0789454
1.3515,-0.0787956
1.35175,-0.0740365
1.352,-0.0608644
1.35225,-0.0438132
1.3525,-0.0271187
1.35275,-0.00614027
1.353,0.0297189
1.35325,0.0565936
1.3535,0.0958411
1.35375,0.135168
1.354,0.171017
1.35425,0.200154
1.3545,0.233075
1.35475,0.272521
1.355,0.302422
1.35525,0.322005
1.3555,0.340231
1.35575,0.352095
1.356,0.367785
1.35625,0.369994
1.3565,0.368704
1.35675,0.358167
1.357,0.349009
1.35725,0.339712
1.3575,0.323122
1.35775,0.300907
1.358,0.284686
1.35825,0.260073
1.3585,0.235353
1.35875,0.219886
1.359,0.203802
1.35925,0.180253
1.3595,0.171474
1.35975,0.162981
1.36,0.152787
1.36025,0.145901
1.3605,0.145597
1.36075,0.150269
1.361,0.151144
1.36125,0.151177
1.3615,0.163159
1.36175,0.16817
1.362,0.172774
1.36225,0.179952
1.3625,0.174397
1.36275,0.180418
1.363,0.168289
1.36325,0.170483
1.3635,0.155129
1.36375,0.145775
1.364,0.126924
1.36425,0.109335
1.3645,0.0887978
1.36475,0.0700779
1.365,0.0494841
1.36525,0.0274029
1.3655,0.00351597
1.36575,-0.00707536
1.366,-0.0253837
1.36625,-0.0376618
1.3665,-0.0495527
1.36675,-0.0457275
1.367,-0.0447302
1.36725,-0.0406451
1.3675,-0.0259069
1.36775,-0.00745339
1.368,0.0113553
1.36825,0.0423029
1.3685,0.0678137
1.36875,0.101879
1.369,0.131061
1.36925,0.17141
1.3695,0.20519
1.36975,0.241357
1.37,0.270634
1.37025,0.307401
1.3705,0.324438
1.37075,0.345085
1.371,0.368437
1.37125,0.374823
1.3715,0.384531
1.37175,0.379918
1.372,0.383478
1.37225,0.369478
1.3725,0.355608
1.37275,0.343484
1.373,0.318923
1.37325,0.297349
1.3735,0.276918
1.37375,0.255516
1.374,0.235341
1.37425,0.218249
1.3745,0.196053
1.37475,0.18088
1.375,0.17435
1.37525,0.156794
1.3755,0.154069
1.37575,0.154372
1.376,0.153134
1.37625,0.150576
1.3765,0.158831
1.37675,0.156567
1.377,0.162235
1.37725,0.171441
1.3775,0.170945
1.37775,0.170649
1.378,0.178864
1.37825,0.172424
1.3785,0.167043
1.37875,0.156882
1.379,0.148237
1.37925,0.131274
1.3795,0.116185
1.37975,0.099821
1.38,0.0715616
1.38025,0.0490006
1.3805,0.0260937
1.38075,0.0112274
1.381,-0.00988729
1.38125,-0.0290147
1.3815,-0.0427879
1.38175,-0.0584891
1.382,-0.0585402
1.38225,-0.0598686
1.3825,-0.060012
1.38275,-0.0533478
1.383,-0.0342711
1.38325,-0.0160335
1.3835,0.00869884
1.38375,0.0312021
1.384,0.068978
1.38425,0.0928953
1.3845,0.133536
1.38475,0.163661
1.385,0.197674
1.38525,0.235771
1.3855,0.268993
1.38575,0.290479
1.386,0.311919
1.38625,0.337086
1.3865,0.352421
1.38675,0.351253
1.387,0.363842
1.38725,0.353562
1.3875,0.352383
1.38775,0.342948
1.388,0.321918
1.38825,0.302642
1.3885,0.280687
1.38875,0.263535
1.389,0.2351
1.38925,0.218242
1.3895,0.194301
1.38975,0.178358
1.39,0.155203
1.39025,0.148081
1.3905,0.134125
1.39075,0.126803
1.391,0.116324
1.39125,0.115392
1.3915,0.118059
1.39175,0.121244
1.392,0.118952
1.39225,0.125652
1.3925,0.131199
1.39275,0.135472
1.393,0.130589
1.39325,0.139951
1.3935,0.129425
1.39375,0.126966
1.394,0.124748
1.39425,0.108409
1.3945,0.100265
1.39475,0.0861133
1.395,0.0684193
1.39525,0.0430554
1.3955,0.0200201
1.39575,0.00125483
1.396,-0.0247109
1.39625,-0.0470863
1.3965,-0.0644665
1.39675,-0.0860489
1.397,-0.0907967
1.39725,-0.102487
1.3975,-0.109304
1.39775,-0.113092
1.398,-0.100586
1.39825,-0.0958857
1.3985,-0.0715919
1.39875,-0.0595111
1.399,-0.0322851
1.39925,0.000383917
1.3995,0.0306373
1.39975,0.0676327
1.4,0.102674
1.40025,0.128348
1.4005,0.166598
1.40075,0.202318
1.401,0.223425
1.40125,0.248377
1.4015,0.269923
1.40175,0.289899
1.402,0.299693
1.40225,0.301657
1.4025,0.304867
1.40275,0.301971
1.403,0.294484
1.40325,0.273132
1.4035,0.262765
1.40375,0.237835
1.404,0.217889
1.40425,0.193066
1.4045,0.178525
1.40475,0.148017
1.405,0.133309
1.40525,0.112757
1.4055,0.0909704
1.40575,0.0831394
1.406,0.0700217
1.40625,0.0655984
1.4065,0.054814
1.40675,0.0561519
1.407,0.0567894
1.40725,0.0608055
1.4075,0.0662168
1.40775,0.0697075
1.408,0.0724944
1.40825,0.0740785
1.4085,0.0737266
1.40875,0.0809081
1.409,0.0760638
1.40925,0.0704876
1.4095,0.0577103
1.40975,0.0471721
1.41,0.0267202
1.41025,0.0126397
1.4105,-0.00599212
1.41075,-0.0276526
1.411,-0.053752
1.41125,-0.077842
1.4115,-0.0938891
1.41175,-0.111422
1.412,-0.130404
1.41225,-0.149527
1.4125,-0.162059
1.41275,-0.16896
1.413,-0.172421
1.41325,-0.173479
1.4135,-0.163818
1.41375,-0.147972
1.414,-0.130533
1.41425,-0.103439
1.4145,-0.0771953
1.41475,-0.0483768
1.415,-0.0218545
1.41525,0.018674
1.4155,0.0534009
1.41575,0.0859298
1.416,0.117219
1.41625,0.147801
1.4165,0.178598
1.41675,0.198108
1.417,0.216613
1.41725,0.231001
1.4175,0.23619
1.41775,0.241301
1.418,0.241762
1.41825,0.233828
1.4185,0.221513
1.41875,0.211703
1.419,0.1859
1.41925,0.167083
1.4195,0.147371
1.41975,0.124955
1.42,0.0989422
1.42025,0.0792813
1.4205,0.0595531
1.42075,0.0389029
1.421,0.0273977
1.42125,0.0170317
1.4215,0.00821347
1.42175,-0.00174761
1.422,-0.00423931
1.42225,-0.00539545
1.4225,0.000894574
1.42275,0.002892
1.423,-0.000610668
1.42325,0.00910914
1.4235,0.0156546
1.42375,0.0121757
1.424,0.0194134
1.42425,0.0125891
1.4245,0.0085396
1.42475,0.00389673
1.425,-0.0131504
1.42525,-0.025007
1.4255,-0.0413272
1.42575,-0.0546748
1.426,-0.0805985
1.42625,-0.0983488
1.4265,-0.121008
1.42675,-0.147993
1.427,-0.164428
1.42725,-0.188103
1.4275,-0.197431
1.42775,-0.216416
1.428,-0.227452
1.42825,-0.228904
1.4285,-0.233314
1.42875,-0.222029
1.429,-0.214552
1.42925,-0.194424
1.4295,-0.180614
1.42975,-0.154038
1.43,-0.12437
1.43025,-0.0913483
1.4305,-0.0602271
1.43075,-0.028122
1.431,0.0124205
1.43125,0.0488309
1.4315,0.0751159
1.43175,0.103766
1.432,0.129825
1.43225,0.148183
1.4325,0.173601
1.43275,0.182491
1.433,0.188737
1.43325,0.188841
1.4335,0.184504
1.43375,0.175072
1.434,0.163196
1.43425,0.14033
1.4345,0.126586
1.43475,0.104238
1.435,0.0803556
1.43525,0.0616686
1.4355,0.0381832
1.43575,0.0214171
1.436,-0.00553345
1.43625,-0.0150698
1.4365,-0.0330206
1.43675,-0.0374726
1.437,-0.0452263
1.43725,-0.0495657
1.4375,-0.0508821
1.43775,-0.0578265
1.438,-0.0509513
1.43825,-0.0442327
1.4385,-0.0407916
1.43875,-0.0355992
1.439,-0.0362048
1.43925,-0.0294804
1.4395,-0.0361608
1.43975,-0.0384397
1.44,-0.0435997
1.44025,-0.0468573
1.4405,-0.0575247
1.44075,-0.0753706
1.441,-0.0881205
1.44125,-0.108092
1.4415,-0.131341
1.44175,-0.15579
1.442,-0.17657
1.44225,-0.1958
1.4425,-0.222728
1.44275,-0.232021
1.443,-0.247892
1.44325,-0.259729
1.4435,-0.272649
1.44375,-0.274395
1.444,-0.271621
1.44425,-0.260961
1.4445,-0.246553
1.44475,-2.34E-01
1.445,-0.206545
1.44525,-0.18518
1.4455,-0.150577
1.44575,-0.11838
1.446,-0.0861989
1.44625,-0.0495848
1.4465,-0.0153676
1.44675,0.0241572
1.447,0.0557098
1.44725,0.0797765
1.4475,0.102814
1.44775,0.119274
1.448,0.143493
1.44825,0.148306
1.4485,0.155853
1.44875,0.149678
1.449,0.146815
1.44925,0.136588
1.4495,0.12584
1.44975,0.103623
1.45,0.085017
1.45025,0.0588177
1.4505,0.0365698
1.45075,0.0203564
1.451,-0.00728668
1.45125,-0.0176185
1.4515,-0.0390755
1.45175,-0.0561242
1.452,-0.0647815
1.45225,-0.0751436
1.4525,-0.0791071
1.45275,-0.0815602
1.453,-0.0805205
1.45325,-0.0828256
1.4535,-0.0775408
1.45375,-0.0725156
1.454,-0.0666642
1.45425,-0.0661878
1.4545,-0.0599269
1.45475,-0.0624782
1.455,-0.0565487
1.45525,-0.0604659
1.4555,-0.0654255
1.45575,-0.0735354
1.456,-0.0853145
1.45625,-0.109409
1.4565,-0.124622
1.45675,-0.142609
1.457,-0.162129
1.45725,-0.187797
1.4575,-0.202568
1.45775,-0.232157
1.458,-0.251994
1.45825,-0.259856
1.4585,-0.271761
1.45875,-0.288304
1.459,-0.285711
1.45925,-0.285751
1.4595,-0.281102
1.45975,-0.269151
1.46,-0.258425
1.46025,-0.241024
1.4605,-0.208431
1.46075,-0.183521
1.461,-0.145374
1.46125,-0.116399
1.4615,-0.0753712
1.46175,-0.0447732
1.462,-0.00608858
1.46225,0.0263343
1.4625,0.0522209
1.46275,0.0766686
1.463,0.105104
1.46325,0.120644
1.4635,0.13561
1.46375,0.142447
1.464,0.142604
1.46425,0.143052
1.4645,0.136786
1.46475,0.119581
1.465,0.108788
1.46525,0.0853203
1.4655,0.0616249
1.46575,0.0487661
1.466,0.0217344
1.46625,0.00374136
1.4665,-0.0146444
1.46675,-0.0381854
1.467,-0.050556
1.46725,-0.0635359
1.4675,-0.0727609
1.46775,-0.0786074
1.468,-0.0886818
1.46825,-0.0846043
1.4685,-0.0888672
1.46875,-0.0819907
1.469,-0.074273
1.46925,-0.0743783
1.4695,-0.063476
1.46975,-0.0656924
1.47,-0.0555892
1.47025,-0.0624153
1.4705,-0.0608108
1.47075,-0.06512
1.471,-0.0693214
1.47125,-0.0846903
1.4715,-0.097688
1.47175,-0.112444
1.472,-0.130012
1.47225,-0.151018
1.4725,-0.167732
1.47275,-0.188359
1.473,-0.209216
1.47325,-0.229812
1.4735,-0.248252
1.47375,-0.264457
1.474,-0.273382
1.47425,-0.277929
1.4745,-0.285762
1.47475,-0.277095
1.475,-0.277718
1.47525,-0.261446
1.4755,-0.240797
1.47575,-0.213021
1.476,-0.191057
1.47625,-0.154995
1.4765,-0.120363
1.47675,-0.0892752
1.477,-0.0570758
1.47725,-0.0131444
1.4775,0.0124559
1.47775,0.0438879
1.478,0.0816315
1.47825,0.105167
1.4785,0.12002
1.47875,0.134393
1.479,0.150854
1.47925,0.151531
1.4795,0.158299
1.47975,0.148028
1.48,0.141744
1.48025,0.129761
1.4805,0.114434
1.48075,0.0945971
1.481,0.071419
1.48125,0.052186
1.4815,0.0247616
1.48175,0.0109675
1.482,-0.00877954
1.48225,-0.026203
1.4825,-0.0432003
1.48275,-0.0572063
1.483,-0.0638928
1.48325,-0.0673401
1.4835,-0.0695776
1.48375,-0.0691215
1.484,-0.0637696
1.48425,-0.0563635
1.4845,-0.0564092
1.48475,-0.0480024
1.485,-0.0444273
1.48525,-0.0376347
1.4855,-0.0357237
1.48575,-0.0407098
1.486,-0.0376409
1.48625,-0.0509727
1.4865,-0.0526136
1.48675,-0.0613146
1.487,-0.0804214
1.48725,-0.0996106
1.4875,-0.120617
1.48775,-0.134751
1.488,-0.162159
1.48825,-0.182038
1.4885,-0.195822
1.48875,-0.21609
1.489,-0.235253
1.48925,-0.243158
1.4895,-0.258896
1.48975,-0.258817
1.49,-0.262146
1.49025,-0.253459
1.4905,-0.245593
1.49075,-0.230853
1.491,-0.203053
1.49125,-0.183425
1.4915,-0.146459
1.49175,-0.122341
1.492,-0.0857331
1.49225,-0.0447579
1.4925,-0.00848088
1.49275,0.0232087
1.493,0.058035
1.49325,0.091361
1.4935,0.117637
1.49375,0.141588
1.494,0.156857
1.49425,0.168479
1.4945,0.180043
1.49475,0.184863
1.495,0.178224
1.49525,0.177417
1.4955,0.157575
1.49575,0.145591
1.496,0.129624
1.49625,0.114577
1.4965,0.0932268
1.49675,0.0649556
1.497,0.0472503
1.49725,0.0290179
1.4975,0.0131721
1.49775,-0.00757637
1.498,-0.0222809
1.49825,-0.0303615
1.4985,-0.0343301
1.49875,-0.0391338
1.499,-0.0441839
1.49925,-0.0338226
1.4995,-0.0365243
1.49975,-0.0344756
1.5,-0.0283222
1.50025,-0.0229585
1.5005,-0.0149559
1.50075,-0.0154476
1.501,-0.00799663
1.50125,-0.0132943
1.5015,-0.0158682
1.50175,-0.0190768
1.502,-0.030875
1.50225,-0.0398956
1.5025,-0.0553985
1.50275,-0.0712423
1.503,-0.0940475
1.50325,-0.113102
1.5035,-0.135762
1.50375,-0.161899
1.504,-0.179249
1.50425,-0.198559
1.5045,-0.215067
1.50475,-0.219244
1.505,-0.227395
1.50525,-0.230487
1.5055,-0.226925
1.50575,-0.220893
1.506,-0.207227
1.50625,-0.189205
1.5065,-0.169178
1.50675,-0.140098
1.507,-0.110071
1.50725,-0.0728164
1.5075,-0.0361079
1.50775,-0.00318148
1.508,0.0318511
1.50825,0.0716802
1.5085,0.0987427
1.50875,0.13644
1.509,0.155909
1.50925,0.179918
1.5095,0.190779
1.50975,0.207793
1.51,0.209643
1.51025,0.211151
1.5105,0.207234
1.51075,0.20331
1.511,0.185034
1.51125,0.165568
1.5115,0.153169
1.51175,0.132277
1.512,0.107454
1.51225,0.087562
1.5125,0.0698605
1.51275,0.0483378
1.513,0.0321906
1.51325,0.0166875
1.5135,0.00824912
1.51375,-0.0013129
1.514,-0.00294666
1.51425,-0.0117276
1.5145,-0.00798421
1.51475,-0.00924198
1.515,0.00108937
1.51525,0.00105649
1.5155,0.00582135
1.51575,0.016014
1.516,0.0219709
1.51625,0.0207108
1.5165,0.024621
1.51675,0.016778
1.517,0.00938202
1.51725,0.00299534
1.5175,-0.00787589
1.51775,-0.0234862
1.518,-0.0396583
1.51825,-0.0516068
1.5185,-0.0797688
1.51875,-0.100057
1.519,-0.118361
1.51925,-0.139458
1.5195,-0.161097
1.51975,-0.175622
1.52,-0.183992
1.52025,-0.198242
1.5205,-0.206748
1.52075,-0.199699
1.521,-0.194887
1.52125,-0.181955
1.5215,-0.168821
1.52175,-0.152222
1.522,-0.127161
1.52225,-0.09411
1.5225,-0.0637708
1.52275,-0.0258314
1.523,0.00407573
1.52325,0.0420933
1.5235,0.0816826
1.52375,0.111645
1.524,0.142398
1.52425,0.166333
1.5245,0.195353
1.52475,0.211004
1.525,0.226029
1.52525,0.235105
1.5255,0.233204
1.52575,0.235825
1.526,0.22535
1.52625,0.220031
1.5265,0.20796
1.52675,0.186304
1.527,0.168725
1.52725,0.140521
1.5275,0.118978
1.52775,0.101346
1.528,0.0794027
1.52825,0.0599415
1.5285,0.0511927
1.52875,0.0319057
1.529,0.0209476
1.52925,0.0162045
1.5295,0.0174735
1.52975,0.0132019
1.53,0.0179626
1.53025,0.0216746
1.5305,0.023538
1.53075,0.0257313
1.531,0.0313296
1.53125,0.0392279
1.5315,0.0354294
1.53175,0.0381791
1.532,0.0437494
1.53225,0.0363915
1.5325,0.0254491
1.53275,0.0233988
1.533,0.0124433
1.53325,-0.00688982
1.5335,-0.0297443
1.53375,-0.0472672
1.534,-0.067023
1.53425,-0.086593
1.5345,-0.106777
1.53475,-0.125685
1.535,-0.144575
1.53525,-0.16678
1.5355,-0.178137
1.53575,-0.183018
1.536,-0.187109
1.53625,-0.182782
1.5365,-0.179541
1.53675,-0.167043
1.537,-0.142526
1.53725,-0.122675
1.5375,-0.0960485
1.53775,-0.0674626
1.538,-0.0324497
1.53825,0.00824255
1.5385,0.0412797
1.53875,0.0714246
1.539,0.109834
1.53925,0.146358
1.5395,0.168981
1.53975,0.193347
1.54,0.218691
1.54025,0.236001
1.5405,0.243945
1.54075,0.247272
1.541,0.255324
1.54125,0.243867
1.5415,0.242637
1.54175,0.229634
1.542,0.206219
1.54225,0.193479
1.5425,0.169649
1.54275,0.150795
1.543,0.128821
1.54325,0.102205
1.5435,0.0822185
1.54375,0.0660674
1.544,0.0591114
1.54425,0.0414493
1.5445,0.0307311
1.54475,0.0248002
1.545,0.0276159
1.54525,0.0281919
1.5455,0.0221349
1.54575,0.0280534
1.546,0.036154
1.54625,0.0351037
1.5465,0.0492584
1.54675,0.0440631
1.547,0.0513819
1.54725,0.0529494
1.5475,0.0496959
1.54775,0.0443513
1.548,0.0347169
1.54825,0.0230441
1.5485,0.0107618
1.54875,-0.0097996
1.549,-0.0242924
1.54925,-0.0523152
1.5495,-0.0723024
1.54975,-0.0893257
1.55,-0.114951
1.55025,-0.127164
1.5505,-0.147137
1.55075,-0.158909
1.551,-0.171168
1.55125,-0.182079
1.5515,-0.177119
1.55175,-0.172359
1.552,-0.16521
1.55225,-0.150705
1.5525,-0.12571
1.55275,-0.107852
1.553,-0.0715627
1.55325,-0.0476728
1.5535,-0.0151171
1.55375,0.0286985
1.554,0.0563174
1.55425,0.0975906
1.5545,0.131995
1.55475,0.160868
1.555,0.183403
1.55525,0.207137
1.5555,0.229503
1.55575,0.245067
1.556,0.256612
1.55625,0.25833
1.5565,0.255819
1.55675,0.247225
1.557,0.23233
1.55725,0.215762
1.5575,0.206946
1.55775,0.185564
1.558,0.160976
1.55825,0.143416
1.5585,0.114817
1.55875,0.0953052
1.559,0.079724
1.55925,0.057673
1.5595,0.0464373
1.55975,0.0365473
1.56,0.0263186
1.56025,0.0249354
1.5605,0.0244838
1.56075,0.0250536
1.561,0.0267819
1.56125,0.0356772
1.5615,0.0358845
1.56175,0.0429165
1.562,0.0486771
1.56225,0.0524512
1.5625,0.0452963
1.56275,0.0525874
1.563,0.0470587
1.56325,0.0407738
1.5635,0.0297593
1.56375,0.0157327
1.564,0.00104987
1.56425,-0.0223357
1.5645,-0.0368157
1.56475,-0.0623522
1.565,-0.0813719
1.56525,-0.103062
1.5655,-0.126069
1.56575,-0.145263
1.566,-0.161142
1.56625,-0.169689
1.5665,-0.181673
1.56675,-0.187782
1.567,-0.185099
1.56725,-0.177435
1.5675,-0.166801
1.56775,-0.141764
1.568,-0.122484
1.56825,-0.0983075
1.5685,-0.0699313
1.56875,-0.0360527
1.569,0.00420249
1.56925,0.0393427
1.5695,0.0702723
1.56975,0.102263
1.57,0.140628
1.57025,0.166353
1.5705,0.191134
1.57075,0.215644
1.571,0.234752
1.57125,0.242037
1.5715,0.246285
1.57175,0.242993
1.572,0.240834
1.57225,0.233301
1.5725,0.22534
1.57275,0.209919
1.573,0.190575
1.57325,0.162715
1.5735,0.147775
1.57375,0.118196
1.574,0.103196
1.57425,0.0832015
1.5745,0.063742
1.57475,0.0434215
1.575,0.0332803
1.57525,0.0252721
1.5755,0.0197548
1.57575,0.0201625
1.576,0.0167675
1.57625,0.0185741
1.5765,0.0208735
1.57675,0.0204287
1.577,0.0257355
1.57725,0.0329294
1.5775,0.0342595
1.57775,0.0362496
1.578,0.0435343
1.57825,0.0364356
1.5785,0.028579
1.57875,0.024788
1.579,0.0121608
1.57925,-0.00253886
1.5795,-0.0184638
1.57975,-0.0403562
1.58,-0.0578878
1.58025,-0.0837665
1.5805,-0.100021
1.58075,-0.124722
1.581,-0.142613
1.58125,-0.165149
1.5815,-0.180511
1.58175,-0.183292
1.582,-1.98E-01
1.58225,-0.195148
1.5825,-0.185773
1.58275,-0.184481
1.583,-0.170272
1.58325,-0.144645
1.5835,-0.119314
1.58375,-0.0969388
1.584,-0.0653632
1.58425,-0.0316487
1.5845,0.00722146
1.58475,0.0422747
1.585,0.0709575
1.58525,0.11251
1.5855,0.142474
1.58575,0.164174
1.586,0.193318
1.58625,0.208425
1.5865,0.227681
1.58675,0.228037
1.587,0.231162
1.58725,0.238777
1.5875,0.223029
1.58775,0.220327
1.588,0.202516
1.58825,0.181386
1.5885,0.161655
1.58875,0.142986
1.589,0.119089
1.58925,0.0958977
1.5895,0.0776339
1.58975,0.0635135
1.59,0.0454491
1.59025,0.0269872
1.5905,0.0175376
1.59075,0.0135999
1.591,0.00657296
1.59125,0.00501714
1.5915,0.00118189
1.59175,0.00326955
1.592,0.00642098
1.59225,0.0145173
1.5925,0.01641
1.59275,0.0203625
1.593,0.0232542
1.59325,0.0269721
1.5935,0.0235487
1.59375,0.0202215
1.594,0.0117379
1.59425,0.00858681
1.5945,-0.0079053
1.59475,-0.0173907
1.595,-0.0407558
1.59525,-0.0565703
1.5955,-0.0831146
1.59575,-0.10324
1.596,-0.127819
1.59625,-0.145099
1.5965,-0.167493
1.59675,-0.179604
1.597,-0.19756
1.59725,-0.198618
1.5975,-0.206915
1.59775,-0.204039
1.598,-0.19886
1.59825,-0.189882
1.5985,-0.174771
1.59875,-0.151248
1.599,-0.120594
1.59925,-0.0911693
1.5995,-0.0640737
1.59975,-0.0223929
1.6,0.00432876
1.60025,0.0428123
1.6005,0.0759082
1.60075,0.113598
1.601,0.136002
1.60125,0.162714
1.6015,0.191041
1.60175,0.207981
1.602,0.220919
1.60225,0.219882
1.6025,0.224208
1.60275,0.221528
1.603,0.214118
1.60325,0.195008
1.6035,0.182757
1.60375,0.167053
1.604,0.145801
1.60425,0.126022
1.6045,0.100646
1.60475,0.0781847
1.605,0.0586514
1.60525,0.0422028
1.6055,0.0282006
1.60575,0.00956925
1.606,0.0018471
1.60625,-0.00927915
1.6065,-0.00566527
1.60675,-0.00804461
1.607,-0.00699726
1.60725,-0.00598075
1.6075,-0.00272916
1.60775,0.000859045
1.608,0.0121188
1.60825,0.0163485
1.6085,0.0155129
1.60875,0.0147225
1.609,0.015701
1.60925,0.00863684
1.6095,-0.00175837
1.60975,-0.0136581
1.61,-0.0225383
1.61025,-0.0414959
1.6105,-0.0645061
1.61075,-0.07957
1.611,-0.106879
1.61125,-0.124753
1.6115,-0.149273
1.61175,-0.164583
1.612,-0.18185
1.61225,-0.1971
1.6125,-0.211818
1.61275,-0.216314
1.613,-0.218235
1.61325,-0.214078
1.6135,-0.204513
1.61375,-0.194707
1.614,-0.169707
1.61425,-0.149246
1.6145,-0.120674
1.61475,-0.0840839
1.615,-0.0587977
1.61525,-0.0233823
1.6155,0.0151633
1.61575,0.0469943
1.616,0.0816891
1.61625,0.110779
1.6165,0.143399
1.61675,0.164901
1.617,0.190567
1.61725,0.198408
1.6175,0.207325
1.61775,0.211934
1.618,0.218142
1.61825,0.207545
1.6185,0.201964
1.61875,0.187164
1.619,0.162282
1.61925,0.14086
1.6195,0.122775
1.61975,0.106297
1.62,0.0800723
1.62025,0.0650555
1.6205,0.0420315
1.62075,0.0229323
1.621,0.00518154
1.62125,0.00336712
1.6215,-0.00728664
1.62175,-0.0168255
1.622,-0.0124011
1.62225,-0.0124402
1.6225,-0.0122119
1.62275,-0.0128205
1.623,-0.00216448
1.62325,0.00151854
1.6235,-0.000209568
1.62375,0.0112007
1.624,0.00767035
1.62425,0.0100317
1.6245,0.000202371
1.62475,-0.00629749
1.625,-0.0127348
1.62525,-0.0187185
1.6255,-0.0361628
1.62575,-0.0528746
1.626,-0.0746833
1.62625,-0.0933209
1.6265,-0.11943
1.62675,-0.135792
1.627,-0.158585
1.62725,-0.184834
1.6275,-0.195852
1.62775,-0.209054
1.628,-0.220373
1.62825,-0.224499
1.6285,-0.226211
1.62875,-0.212114
1.629,-0.204135
1.62925,-0.18887
1.6295,-0.166216
1.62975,-0.137785
1.63,-0.106328
1.63025,-0.0833151
1.6305,-0.0451757
1.63075,-0.00576897
1.631,0.0259285
1.63125,0.065648
1.6315,0.0902764
1.63175,0.122121
1.632,0.147736
1.63225,0.171071
1.6325,0.189424
1.63275,0.199141
1.633,0.208588
1.63325,0.211106
1.6335,0.210974
1.63375,0.19599
1.634,0.191039
1.63425,0.171638
1.6345,0.156189
1.63475,0.129009
1.635,0.108829
1.63525,0.0860975
1.6355,0.0633196
1.63575,0.0520061
1.636,0.0313276
1.63625,0.0109448
1.6365,-0.00161993
1.63675,-0.0107058
1.637,-0.0147991
1.63725,-0.0146938
1.6375,-0.023765
1.63775,-0.015967
1.638,-0.0149767
1.63825,-0.00870542
1.6385,-0.00211465
1.63875,0.00372762
1.639,-0.000358025
1.63925,0.00941409
1.6395,0.00689682
1.63975,0.00404862
1.64,0.00151009
1.64025,-0.00469787
1.6405,-0.0200192
1.64075,-0.0273601
1.641,-0.0481933
1.64125,-0.0632349
1.6415,-0.0920515
1.64175,-0.110971
1.642,-0.126103
1.64225,-0.152066
1.6425,-0.173761
1.64275,-0.190915
1.643,-0.200694
1.64325,-0.212328
1.6435,-0.217502
1.64375,-0.221405
1.644,-0.223452
1.64425,-0.211337
1.6445,-0.198255
1.64475,-0.183023
1.645,-0.151739
1.64525,-0.13064
1.6455,-0.097453
1.64575,-0.0632961
1.646,-0.0273258
1.64625,0.00443102
1.6465,0.0476125
1.64675,0.080199
1.647,0.113269
1.64725,0.132474
1.6475,0.160334
1.64775,0.185736
1.648,0.201296
1.64825,0.204623
1.6485,0.208205
1.64875,0.211156
1.649,0.203583
1.64925,0.196888
1.6495,0.183585
1.64975,0.162256
1.65,0.148443
1.65025,0.126676
1.6505,0.0981921
1.65075,0.0826003
1.651,0.0627443
1.65125,0.0402626
1.6515,0.024893
1.65175,0.00632337
1.652,-0.00238341
1.65225,-0.00774639
1.6525,-0.0142357
1.65275,-0.0189075
1.653,-0.0215264
1.65325,-0.0152015
1.6535,-0.0117033
1.65375,-0.00322855
1.654,-0.000510642
1.65425,-4.70E-05
1.6545,0.00468581
1.65475,0.0106329
1.655,0.0105228
1.65525,0.00443189
1.6555,-0.00390613
1.65575,-0.00800279
1.656,-0.0219593
1.65625,-0.0336837
1.6565,-0.05907
1.65675,-0.073991
1.657,-0.0945193
1.65725,-0.118642
1.6575,-0.136677
1.65775,-0.159662
1.658,-0.177241
1.65825,-0.18977
1.6585,-0.203021
1.65875,-0.220344
1.659,-0.218963
1.65925,-0.221419
1.6595,-0.215901
1.65975,-0.202141
1.66,-1.83E-01
1.66025,-0.163025
1.6605,-0.137261
1.66075,-0.115242
1.661,-0.0819497
1.66125,-0.0402693
1.6615,-0.0119875
1.66175,0.0221876
1.662,0.0652915
1.66225,0.0964316
1.6625,0.127994
1.66275,0.150398
1.663,0.171296
1.66325,0.188627
1.6635,0.201358
1.66375,0.210814
1.664,0.210323
1.66425,0.20717
1.6645,0.202456
1.66475,0.195483
1.665,0.180244
1.66525,0.154269
1.6655,0.136107
1.66575,0.11881
1.666,0.0901283
1.66625,0.0764734
1.6665,0.0490664
1.66675,0.0316904
1.667,0.0155399
1.66725,0.0116231
1.6675,0.000309581
1.66775,-0.0141717
1.668,-0.0153054
1.66825,-0.014146
1.6685,-0.0170578
1.66875,-0.00780124
1.669,-0.0013862
1.66925,0.0020846
1.6695,0.00296203
1.66975,0.00604941
1.67,0.0080051
1.67025,0.0162209
1.6705,0.00702835
1.67075,0.00858226
1.671,0.00376033
1.67125,-0.0150842
1.6715,-0.027541
1.67175,-0.0443158
1.672,-0.0571288
1.67225,-0.0776852
1.6725,-0.103857
1.67275,-0.120873
1.673,-0.146089
1.67325,-0.159534
1.6735,-0.179288
1.67375,-0.200102
1.674,-0.203613
1.67425,-0.215352
1.6745,-0.21837
1.67475,-0.216736
1.675,-0.209442
1.67525,-0.192418
1.6755,-0.174208
1.67575,-0.147733
1.676,-0.120915
1.67625,-0.0949957
1.6765,-0.0551138
1.67675,-0.0248687
1.677,0.0136208
1.67725,0.0470405
1.6775,0.080079
1.67775,0.114687
1.678,0.140649
1.67825,0.171191
1.6785,0.192114
1.67875,0.205769
1.679,0.210799
1.67925,0.216155
1.6795,0.222447
1.67975,0.216134
1.68,0.202614
1.68025,0.189629
1.6805,0.169876
1.68075,0.157748
1.681,0.134723
1.68125,0.109392
1.6815,0.0901435
1.68175,0.0670581
1.682,0.0507159
1.68225,0.0345178
1.6825,0.0166989
1.68275,0.00543731
1.683,-0.000244987
1.68325,-0.00459737
1.6835,-0.0138231
1.68375,-0.0102772
1.684,-0.0126618
1.68425,-0.00681109
1.6845,-0.00266665
1.68475,0.00902554
1.685,0.0148984
1.68525,0.0163501
1.6855,0.0194411
1.68575,0.0152179
1.686,0.0137606
1.68625,0.00675025
1.6865,0.000826524
1.68675,-0.0139612
1.687,-0.0302804
1.68725,-0.0403845
1.6875,-0.06099
1.68775,-0.0889844
1.688,-0.105697
1.68825,-0.131786
1.6885,-0.152918
1.68875,-0.171683
1.689,-0.18922
1.68925,-0.194394
1.6895,-0.204524
1.68975,-0.210611
1.69,-0.209031
1.69025,-0.201978
1.6905,-0.199579
1.69075,-0.176988
1.691,-0.155085
1.69125,-0.133754
1.6915,-0.10696
1.69175,-0.0753175
1.692,-0.0407342
1.69225,-0.00113074
1.6925,0.0331814
1.69275,0.062895
1.693,0.104695
1.69325,0.127061
1.6935,0.158021
1.69375,0.182638
1.694,0.196316
1.69425,0.21447
1.6945,0.221926
1.69475,0.21785
1.695,0.224875
1.69525,0.215246
1.6955,0.196799
1.69575,0.186246
1.696,0.163198
1.69625,0.143322
1.6965,0.126871
1.69675,0.104158
1.697,0.0853931
1.69725,0.0644817
1.6975,0.0496494
1.69775,0.0293168
1.698,0.0125828
1.69825,0.00860784
1.6985,-6.11E-05
1.69875,-0.00412404
1.699,-0.0100181
1.69925,-0.0033997
1.6995,-0.00721487
1.69975,-0.00102434
1.7,0.0110891
1.70025,0.00792028
1.7005,0.0125564
1.70075,0.0217156
1.701,0.0244943
1.70125,0.0187698
1.7015,0.0128111
1.70175,0.00911559
1.702,-0.000639871
1.70225,-0.0144122
1.7025,-0.0345947
1.70275,-0.0517174
1.703,-0.0676994
1.70325,-0.0930122
1.7035,-0.115383
1.70375,-0.137015
1.704,-0.156862
1.70425,-0.168368
1.7045,-0.185683
1.70475,-0.202217
1.705,-0.210573
1.70525,-0.207062
1.7055,-0.209495
1.70575,-0.200886
1.706,-0.182035
1.70625,-0.172848
1.7065,-0.146777
1.70675,-0.122389
1.707,-0.0883119
1.70725,-0.0519701
1.7075,-0.0215453
1.70775,0.0121652
1.708,0.0498312
1.70825,0.0815984
1.7085,0.116959
1.70875,0.143871
1.709,0.171139
1.70925,0.196752
1.7095,0.207003
1.70975,0.217212
1.71,0.223407
1.71025,0.221906
1.7105,0.217978
1.71075,0.206782
1.711,0.192626
1.71125,0.181278
1.7115,0.15931
1.71175,0.142569
1.712,0.114248
1.71225,0.096828
1.7125,0.0796496
1.71275,0.0554692
1.713,0.0421206
1.71325,0.0253071
1.7135,0.0169759
1.71375,0.000291405
1.714,0.00220922
1.71425,-0.00262314
1.7145,-0.0089779
1.71475,0.00116381
1.715,-0.00383887
1.71525,0.00777579
1.7155,0.0118777
1.71575,0.015007
1.716,0.0234261
1.71625,0.0229388
1.7165,0.0244377
1.71675,0.0144641
1.717,0.0114429
1.71725,0.0038063
1.7175,-0.00498462
1.71775,-0.0260367
1.718,-0.0368939
1.71825,-0.0623917
1.7185,-0.0798926
1.71875,-0.103208
1.719,-0.121506
1.71925,-0.141342
1.7195,-0.160369
1.71975,-0.183478
1.72,-0.192109
1.72025,-0.202928
1.7205,-0.208448
1.72075,-0.209854
1.721,-0.202336
1.72125,-0.189184
1.7215,-0.173626
1.72175,-0.16127
1.722,-0.13537
1.72225,-0.103151
1.7225,-0.0762675
1.72275,-0.0430449
1.723,0.00217157
1.72325,0.0306329
1.7235,0.0644075
1.72375,0.10189
1.724,0.132649
1.72425,0.162235
1.7245,0.177625
1.72475,0.203031
1.725,0.211549
1.72525,0.225385
1.7255,0.228209
1.72575,0.227224
1.726,0.217034
1.72625,0.203573
1.7265,0.185251
1.72675,0.172587
1.727,0.146966
1.72725,0.13526
1.7275,0.10605
1.72775,0.087865
1.728,0.0663573
1.72825,0.0505629
1.7285,0.032245
1.72875,0.0187837
1.729,0.0105883
1.72925,-0.000904133
1.7295,-0.00217555
1.72975,-0.00772088
1.73,-0.00185578
1.73025,-0.00520418
1.7305,-0.00130788
1.73075,0.00759574
1.731,0.016639
1.73125,0.0182206
1.7315,0.0196847
1.73175,0.0245724
1.732,0.0167309
1.73225,0.0115096
1.7325,0.00555748
1.73275,0.00292391
1.733,-0.0129494
1.73325,-0.0284978
1.7335,-0.0470893
1.73375,-0.0657436
1.734,-0.0906177
1.73425,-0.112054
1.7345,-0.132407
1.73475,-0.154188
1.735,-0.174289
1.73525,-0.182418
1.7355,-0.19854
1.73575,-0.207552
1.736,-0.206129
1.73625,-0.202762
1.7365,-0.195208
1.73675,-0.190804
1.737,-0.165538
1.73725,-0.143936
1.7375,-0.120803
1.73775,-0.0866194
1.738,-0.0615134
1.73825,-0.0225898
1.7385,0.0132165
1.73875,0.0442851
1.739,0.0845301
1.73925,0.116527
1.7395,0.144594
1.73975,0.174086
1.74,0.192949
1.74025,0.205902
1.7405,0.217616
1.74075,0.222009
1.741,0.22813
1.74125,0.221837
1.7415,0.208963
1.74175,0.193326
1.742,0.182266
1.74225,0.157321
1.7425,0.141127
1.74275,0.116054
1.743,0.0988671
1.74325,0.078578
1.7435,0.0594128
1.74375,0.0385243
1.744,0.024919
1.74425,0.0107203
1.7445,0.00462117
1.74475,-0.00700212
1.745,-0.00528079
1.74525,-0.00777425
1.7455,-0.00391834
1.74575,0.00453573
1.746,0.0083532
1.74625,0.0116211
1.7465,0.0165318
1.74675,0.0148292
1.747,0.024497
1.74725,0.0236113
1.7475,0.0206166
1.74775,0.0112221
1.748,0.00108723
1.74825,-0.00529596
1.7485,-0.0216543
1.74875,-0.0370074
1.749,-0.0536656
1.74925,-0.0820562
1.7495,-0.101174
1.74975,-0.117912
1.75,-0.140192
1.75025,-0.164208
1.7505,-0.175816
1.75075,-0.189762
1.751,-0.208541
1.75125,-0.210333
1.7515,-0.211212
1.75175,-0.205467
1.752,-0.200093
1.75225,-0.177149
1.7525,-0.164721
1.75275,-0.132933
1.753,-0.108107
1.75325,-0.0779597
1.7535,-0.0459817
1.75375,-0.0111567
1.754,0.0298865
1.75425,0.0618208
1.7545,0.0982475
1.75475,0.130724
1.755,0.154155
1.75525,0.174412
1.7555,0.202675
1.75575,0.215968
1.756,0.217371
1.75625,0.221516
1.7565,0.22418
1.75675,0.211725
1.757,0.206391
1.75725,0.191859
1.7575,0.174949
1.75775,0.154888
1.758,0.128225
1.75825,0.105777
1.7585,0.0907031
1.75875,0.0697449
1.759,0.0447933
1.75925,0.0282012
1.7595,0.0153617
1.75975,0.00441266
1.76,-0.00453088
1.76025,-0.010018
1.7605,-0.00839079
1.76075,-0.00611791
1.761,-0.0063273
1.76125,0.00531341
1.7615,0.00331594
1.76175,0.00890692
1.762,0.00991805
1.76225,0.014221
1.7625,0.0223193
1.76275,0.0140127
1.763,0.010044
1.76325,0.00666646
1.7635,0.000365881
1.76375,-0.0173234
1.764,-0.0283811
1.76425,-0.046875
1.7645,-0.0667117
1.76475,-0.0936191
1.765,-0.111123
1.76525,-0.13657
1.7655,-0.155381
1.76575,-0.169453
1.766,-0.191091
1.76625,-0.203557
1.7665,-0.211543
1.76675,-0.211165
1.767,-0.206241
1.76725,-0.198865
1.7675,-0.190031
1.76775,-0.17366
1.768,-0.155145
1.76825,-0.127897
1.7685,-0.0990998
1.76875,-0.0577913
1.769,-0.027466
1.76925,0.00962782
1.7695,0.0438519
1.76975,0.0748133
1.77,0.106193
1.77025,0.139797
1.7705,0.165925
1.77075,0.190642
1.771,0.20472
1.77125,0.214214
1.7715,0.224797
1.77175,0.22384
1.772,0.213696
1.77225,0.214314
1.7725,0.195998
1.77275,0.176895
1.773,0.162974
1.77325,0.136578
1.7735,0.115927
1.77375,0.094622
1.774,0.0722368
1.77425,0.0567157
1.7745,0.0417439
1.77475,0.0281327
1.775,0.0145891
1.77525,0.00519745
1.7755,-0.00793429
1.77575,-0.0110791
1.776,-0.0129015
1.77625,-0.00695396
1.7765,-0.00288605
1.77675,0.00637587
1.777,0.00728037
1.77725,0.0104261
1.7775,0.0194349
1.77775,0.0154257
1.778,0.0183616
1.77825,0.0124363
1.7785,0.0128089
1.77875,-0.000198296
1.779,-0.0098515
1.77925,-0.0205323
1.7795,-0.0415377
1.77975,-0.0618318
1.78,-0.0761981
1.78025,-0.101432
1.7805,-0.125022
1.78075,-0.147355
1.781,-0.16061
1.78125,-0.17595
1.7815,-0.198575
1.78175,-0.209493
1.782,-0.211727
1.78225,-0.213167
1.7825,-0.20499
1.78275,-0.199079
1.783,-0.188029
1.78325,-0.16813
1.7835,-0.137766
1.78375,-0.113231
1.784,-0.0857074
1.78425,-0.0442517
1.7845,-0.0127574
1.78475,0.0206461
1.785,0.0570085
1.78525,0.096031
1.7855,0.127069
1.78575,0.155774
1.786,0.18043
1.78625,0.194132
1.7865,0.205529
1.78675,0.222134
1.787,0.223435
1.78725,0.216824
1.7875,0.211647
1.78775,0.206567
1.788,0.188968
1.78825,0.170049
1.7885,0.153732
1.78875,0.126413
1.789,0.104181
1.78925,0.0894377
1.7895,0.0661898
1.78975,0.0460075
1.79,0.02806
1.79025,0.0182962
1.7905,0.00873441
1.79075,0.000416546
1.791,-0.00339709
1.79125,-0.00673949
1.7915,-0.00982035
1.79175,-0.00372248
1.792,-0.00623236
1.79225,-0.000307083
1.7925,0.00382806
1.79275,0.00931981
1.793,0.0158129
1.79325,0.0132058
1.7935,0.0181613
1.79375,0.0184031
1.794,0.0094249
1.79425,-0.00584507
1.7945,-0.0162361
1.79475,-0.031487
1.795,-0.0524916
1.79525,-0.0677903
1.7955,-0.088598
1.79575,-0.115286
1.796,-0.128432
1.79625,-0.151484
1.7965,-0.176602
1.79675,-0.186452
1.797,-0.19989
1.79725,-0.209366
1.7975,-0.213818
1.79775,-0.20664
1.798,-0.200922
1.79825,-0.196214
1.7985,-0.176336
1.79875,-0.156411
1.799,-0.132097
1.79925,-0.0956819
1.7995,-0.0643689
1.79975,-0.0301337
1.8,0.00796116
1.80025,0.0381252
1.8005,0.0759718
1.80075,0.102397
1.801,0.136228
1.80125,0.164307
1.8015,0.182747
1.80175,0.203621
1.802,0.216218
1.80225,0.223887
1.8025,0.217735
1.80275,0.222222
1.803,0.213342
1.80325,0.199167
1.8035,0.178321
1.80375,0.162165
1.804,0.138447
1.80425,0.121222
1.8045,0.0959012
1.80475,0.0765369
1.805,0.060159
1.80525,0.0380253
1.8055,0.0210311
1.80575,0.0156958
1.806,-7.72E-05
1.80625,-0.00539367
1.8065,-0.00755985
1.80675,-0.00968757
1.807,-0.00992131
1.80725,-0.00393709
1.8075,0.00133578
1.80775,0.000919764
1.808,0.0109662
1.80825,0.0149793
1.8085,0.0199188
1.80875,0.0218669
1.809,0.0117646
1.80925,0.0139614
1.8095,-0.00123155
1.80975,-0.00898194
1.81,-0.0172236
1.81025,-0.0391722
1.8105,-0.0557846
1.81075,-0.0768577
1.811,-0.0980568
1.81125,-0.120513
1.8115,-0.138616
1.81175,-0.164412
1.812,-0.181356
1.81225,-0.199044
1.8125,-0.206553
1.81275,-0.206574
1.813,-0.214043
1.81325,-0.206019
1.8135,-0.203882
1.81375,-0.18723
1.814,-0.171473
1.81425,-0.146331
1.8145,-0.119063
1.81475,-0.0820297
1.815,-0.0492691
1.81525,-0.0135912
1.8155,0.0162425
1.81575,0.0607536
1.816,0.0930107
1.81625,0.124881
1.8165,0.14865
1.81675,0.17581
1.817,0.19367
1.81725,0.209389
1.8175,0.221457
1.81775,0.219386
1.818,0.221603
1.81825,0.212221
1.8185,0.201076
1.81875,0.190746
1.819,0.173427
1.81925,0.153234
1.8195,0.127629
1.81975,0.10585
1.82,0.0872826
1.82025,0.071926
1.8205,0.0490349
1.82075,0.0362906
1.821,0.0169988
1.82125,0.00919735
1.8215,-0.00542255
1.82175,-0.00292633
1.822,-0.00761021
1.82225,-0.0104897
1.8225,-0.00724036
1.82275,-0.00157675
1.823,-0.00110406
1.82325,0.00455309
1.8235,0.0156981
1.82375,0.0169969
1.824,0.0145197
1.82425,0.0199303
1.8245,0.0108777
1.82475,0.00270772
1.825,-0.00609115
1.82525,-0.010783
1.8255,-0.0331639
1.82575,-0.0455097
1.826,-0.0698088
1.82625,-0.0832151
1.8265,-0.107953
1.82675,-0.129923
1.827,-0.146916
1.82725,-0.175404
1.8275,-0.189177
1.82775,-0.196958
1.828,-0.211548
1.82825,-0.217094
1.8285,-0.215436
1.82875,-0.207933
1.829,-0.19884
1.82925,-0.180793
1.8295,-0.154524
1.82975,-0.12739
1.83,-0.102074
1.83025,-0.0669021
1.8305,-0.0375876
1.83075,0.00478264
1.831,0.0373033
1.83125,0.0769996
1.8315,0.100231
1.83175,0.13138
1.832,0.16087
1.83225,0.17905
1.8325,0.199188
1.83275,0.21054
1.833,0.222161
1.83325,0.220691
1.8335,0.215899
1.83375,0.20874
1.834,0.201449
1.83425,0.183773
1.8345,0.166667
1.83475,0.147954
1.835,0.121821
1.83525,0.104763
1.8355,0.0783782
1.83575,0.0584847
1.836,0.0378414
1.83625,0.0266011
1.8365,0.0109098
1.83675,0.00314123
1.837,-0.00110474
1.83725,-0.00913149
1.8375,-0.0131315
1.83775,-0.00226565
1.838,-0.000220726
1.83825,0.00313538
1.8385,0.00518035
1.83875,0.0118763
1.839,0.0124099
1.83925,0.0158119
1.8395,0.0179127
1.83975,0.0143045
1.84,0.0123648
1.84025,0.00618951
1.8405,-0.00931694
1.84075,-0.0182709
1.841,-0.0352361
1.84125,-0.0526973
1.8415,-0.0797991
1.84175,-0.0946952
1.842,-0.121638
1.84225,-0.143755
1.8425,-0.156249
1.84275,-0.182476
1.843,-0.195472
1.84325,-0.207683
1.8435,-0.209183
1.84375,-0.207569
1.844,-0.211499
1.84425,-0.205077
1.8445,-0.183577
1.84475,-0.16454
1.845,-0.145002
1.84525,-0.120267
1.8455,-0.0837684
1.84575,-0.0482846
1.846,-0.0199215
1.84625,0.0189274
1.8465,0.0513798
1.84675,0.0887191
1.847,0.118932
1.84725,0.151814
1.8475,0.174553
1.84775,0.195019
1.848,0.208721
1.84825,0.219487
1.8485,0.220282
1.84875,0.222704
1.849,0.215273
1.84925,0.210059
1.8495,0.188467
1.84975,0.171846
1.85,0.149907
1.85025,0.136992
1.8505,0.116985
1.85075,0.0854491
1.851,0.072264
1.85125,0.047208
1.8515,0.0324833
1.85175,0.0145107
1.852,0.00345962
1.85225,-0.00310187
1.8525,-0.00827123
1.85275,-0.0108194
1.853,-0.012836
1.85325,-0.00209826
1.8535,-0.00429954
1.85375,0.00733718
1.854,0.00645348
1.85425,0.0122009
1.8545,0.0201907
1.85475,0.0144805
1.855,0.0226784
1.85525,0.017414
1.8555,0.00689035
1.85575,-0.00200259
1.856,-0.0118312
1.85625,-0.0306157
1.8565,-0.047411
1.85675,-0.0653104
1.857,-0.0858068
1.85725,-0.109691
1.8575,-0.132694
1.85775,-0.149027
1.858,-0.164935
1.85825,-0.189683
1.8585,-0.195841
1.85875,-0.208865
1.859,-0.207723
1.85925,-0.209819
1.8595,-0.210006
1.85975,-0.198454
1.86,-0.182845
1.86025,-0.162084
1.8605,-0.128169
1.86075,-0.101446
1.861,-0.0678228
1.86125,-0.040304
1.8615,0.000549871
1.86175,0.0329767
1.862,0.0712194
1.86225,0.105977
1.8625,0.129631
1.86275,0.158621
1.863,0.179111
1.86325,0.201024
1.8635,0.212824
1.86375,0.223463
1.864,0.218984
1.86425,0.215535
1.8645,0.207635
1.86475,0.20361
1.865,0.183602
1.86525,0.162332
1.8655,0.142796
1.86575,0.127891
1.866,0.0980906
1.86625,0.0816935
1.8665,0.0638327
1.86675,0.038065
1.867,0.0244621
1.86725,0.013777
1.8675,0.00614674
1.86775,-0.00746882
1.868,-0.00808367
1.86825,-0.00605305
1.8685,-0.00991523
1.86875,-0.00577335
1.869,0.00462766
1.86925,0.00840283
1.8695,0.0130735
1.86975,0.0139972
1.87,0.0169738
1.87025,0.0166372
1.8705,0.0130195
1.87075,0.0143273
1.871,0.00697055
1.87125,-0.00228138
1.8715,-0.0186376
1.87175,-0.0306697
1.872,-0.0583687
1.87225,-0.0706296
1.8725,-0.0972073
1.87275,-0.112543
1.873,-0.138117
1.87325,-0.163143
1.8735,-0.173788
1.87375,-0.187772
1.874,-0.200184
1.87425,-0.210001
1.8745,-0.214063
1.87475,-0.212734
1.875,-0.204623
1.87525,-0.190882
1.8755,-0.167689
1.87575,-0.145653
1.876,-0.119552
1.87625,-0.086695
1.8765,-0.0570278
1.87675,-0.0210724
1.877,0.0118085
1.87725,0.0553609
1.8775,0.0840863
1.87775,0.119974
1.878,0.142066
1.87825,0.172201
1.8785,0.193704
1.87875,0.205739
1.879,0.219319
1.87925,0.226175
1.8795,0.21873
1.87975,0.217608
1.88,0.205983
1.88025,0.194991
1.8805,0.174201
1.88075,0.15887
1.881,0.139747
1.88125,0.118519
1.8815,0.0877168
1.88175,0.0675486
1.882,0.0492829
1.88225,0.0370016
1.8825,0.0190433
1.88275,0.00876817
1.883,0.00382876
1.88325,-0.000314959
1.8835,-0.00647368
1.88375,-0.00929007
1.884,-0.00466746
1.88425,-0.00472152
1.8845,0.00278085
1.88475,0.0074981
1.885,0.0112239
1.88525,0.0196935
1.8855,0.0217929
1.88575,0.0133525
1.886,0.019474
1.88625,0.00525444
1.8865,-0.00354991
1.88675,-0.00840181
1.887,-0.0302072
1.88725,-0.0419762
1.8875,-0.0620612
1.88775,-0.08845
1.888,-0.101881
1.88825,-0.122377
1.8885,-0.148949
1.88875,-0.170545
1.889,-0.181138
1.88925,-0.195811
1.8895,-0.202628
1.88975,-0.210496
1.89,-0.212007
1.89025,-0.209502
1.8905,-0.199404
1.89075,-0.179721
1.891,-0.157227
1.89125,-0.136772
1.8915,-0.101048
1.89175,-0.0679134
1.892,-0.038924
1.89225,-0.0064467
1.8925,0.0344741
1.89275,0.0649886
1.893,0.10333
1.89325,0.127741
1.8935,0.156505
1.89375,0.185169
1.894,0.197465
1.89425,0.209003
1.8945,0.220991
1.89475,0.227016
1.895,0.222434
1.89525,0.207409
1.8955,0.196547
1.89575,0.183561
1.896,0.168078
1.89625,0.150963
1.8965,0.127613
1.89675,0.107071
1.897,0.0822282
1.89725,0.0629572
1.8975,0.0405249
1.89775,0.0278901
1.898,0.0120316
1.89825,0.0044219
1.8985,-0.0007045
1.89875,-0.00768695
1.899,-0.0077854
1.89925,-0.00944464
1.8995,-0.00234708
1.89975,0.000794675
1.9,0.000538234
1.90025,0.0148917
1.9005,0.0159167
1.90075,0.020812
1.901,0.0211871
1.90125,0.0157966
1.9015,0.0122667
1.90175,0.00450866
1.902,-0.00169567
1.90225,-0.0223926
1.9025,-0.0329533
1.90275,-0.0501874
1.903,-0.0740925
1.90325,-0.0979325
1.9035,-0.117047
1.90375,-0.14051
1.904,-0.153113
1.90425,-0.174015
1.9045,-0.192048
1.90475,-0.19832
1.905,-0.21054
1.90525,-0.210118
1.9055,-0.20583
1.90575,-0.20033
1.906,-0.184845
1.90625,-0.175457
1.9065,-0.150721
1.90675,-0.119128
1.907,-0.095379
1.90725,-0.0601364
1.9075,-0.0252927
1.90775,0.00847032
1.908,0.0516878
1.90825,0.0811335
1.9085,0.1146
1.90875,0.146577
1.909,0.164637
1.90925,0.187722
1.9095,0.204739
1.90975,0.219434
1.91,0.220584
1.91025,0.219542
1.9105,0.213399
1.91075,0.205808
1.911,0.190333
1.91125,0.177162
1.9115,0.153377
1.91175,0.13722
1.912,0.117551
1.91225,0.0972796
1.9125,0.068774
1.91275,0.0526708
1.913,0.040356
1.91325,0.0189004
1.9135,0.00750309
1.91375,0.00484926
1.914,-0.00960691
1.91425,-0.00502025
1.9145,-0.00541058
1.91475,-0.00633308
1.915,0.00092519
1.91525,0.0015921
1.9155,0.00941587
1.91575,0.0114574
1.916,0.0159377
1.91625,0.0205156
1.9165,0.0133975
1.91675,0.014403
1.917,0.012863
1.91725,0.00562674
1.9175,-0.0126309
1.91775,-0.0287375
1.918,-0.0403771
1.91825,-0.0586895
1.9185,-0.0781877
1.91875,-0.105904
1.919,-0.126685
1.91925,-0.149514
1.9195,-0.169506
1.91975,-0.187149
1.92,-0.19461
1.92025,-0.203914
1.9205,-0.209821
1.92075,-0.207481
1.921,-0.20391
1.92125,-0.194971
1.9215,-0.185072
1.92175,-0.164259
1.922,-0.13421
1.92225,-0.109527
1.9225,-0.0798439
1.92275,-0.0419219
1.923,-0.00558192
1.92325,0.0311417
1.9235,0.0666712
1.92375,0.10102
1.924,0.126017
1.92425,0.156217
1.9245,0.183555
1.92475,0.194798
1.925,0.20868
1.92525,0.21443
1.9255,0.226356
1.92575,0.218529
1.926,0.217217
1.92625,0.205701
1.9265,0.189339
1.92675,0.166324
1.927,0.150887
1.92725,0.130972
1.9275,0.103698
1.92775,0.0821018
1.928,0.0594115
1.92825,0.0451576
1.9285,0.0253108
1.92875,0.0163827
1.929,0.000275981
1.92925,-0.00383985
1.9295,-0.00451361
1.92975,-0.00948982
1.93,-0.00644411
1.93025,-0.0056995
1.9305,-0.00229562
1.93075,0.0082086
1.931,0.00744981
1.93125,0.0166278
1.9315,0.0165768
1.93175,0.0177184
1.932,0.0187465
1.93225,0.0149032
1.9325,0.00111665
1.93275,-0.00843125
1.933,-0.0149268
1.93325,-0.0324318
1.9335,-0.0508318
1.93375,-0.067172
1.934,-0.0959138
1.93425,-0.111722
1.9345,-0.139095
1.93475,-0.152486
1.935,-0.179168
1.93525,-0.185456
1.9355,-0.200659
1.93575,-0.211073
1.936,-0.208728
1.93625,-0.212045
1.9365,-0.205068
1.93675,-0.189539
1.937,-0.173845
1.93725,-0.152748
1.9375,-0.128071
1.93775,-0.0903248
1.938,-0.0625334
1.93825,-0.023764
1.9385,0.0115275
1.93875,0.0455105
1.939,0.0778147
1.93925,0.111566
1.9395,0.140104
1.93975,0.164626
1.94,0.190151
1.94025,0.204256
1.9405,0.213709
1.94075,0.217589
1.941,0.219037
1.94125,0.213005
1.9415,0.208474
1.94175,0.190578
1.942,0.181808
1.94225,0.154418
1.9425,0.141312
1.94275,0.119274
1.943,0.0962889
1.94325,0.071677
1.9435,0.0593144
1.94375,0.0350511
1.944,0.0260106
1.94425,0.00541591
1.9445,0.00362275
1.94475,-0.00623446
1.945,-0.00498513
1.94525,-0.0057338
1.9455,-0.00284685
1.94575,-0.00435204
1.946,-0.00279628
1.94625,0.00632643
1.9465,0.0164663
1.94675,0.0184608
1.947,0.0133417
1.94725,0.0190743
1.9475,0.0149751
1.94775,0.0108716
1.948,-0.000272745
1.94825,-0.00889714
1.9485,-0.0211454
1.94875,-0.041929
1.949,-0.0550411
1.94925,-0.0808804
1.9495,-0.106943
1.94975,-0.125993
1.95,-0.14212
1.95025,-0.16553
1.9505,-0.184555
1.95075,-0.196408
1.951,-0.203157
1.95125,-0.209927
1.9515,-0.209244
1.95175,-0.204646
1.952,-0.194503
1.95225,-0.177797
1.9525,-0.160178
1.95275,-0.136097
1.953,-0.110374
1.95325,-0.0782597
1.9535,-0.0481337
1.95375,-0.012735
1.954,0.0299378
1.95425,0.0656245
1.9545,0.0997349
1.95475,0.131533
1.955,0.152085
1.95525,0.181474
1.9555,0.201134
1.95575,0.213085
1.956,0.223393
1.95625,0.220848
1.9565,0.222718
1.95675,0.21053
1.957,0.203745
1.95725,0.189238
1.9575,0.169583
1.95775,0.153954
1.958,0.133179
1.95825,0.104431
1.9585,0.0825046
1.95875,0.0675879
1.959,0.0438209
1.95925,0.026869
1.9595,0.0151461
1.95975,0.00928673
1.96,-0.00246965
1.96025,-0.00967723
1.9605,-0.00688
1.96075,-0.00243825
1.961,-0.00346347
1.96125,0.000976656
1.9615,0.008194
1.96175,0.00862819
1.962,0.0173406
1.96225,0.0227989
1.9625,0.0195617
1.96275,0.0224054
1.963,0.0195174
1.96325,0.0127646
1.9635,0.000115067
1.96375,-0.0139904
1.964,-0.03283
1.96425,-0.0483917
1.9645,-0.0658347
1.96475,-0.087602
1.965,-0.115102
1.96525,-0.134763
1.9655,-0.14848
1.96575,-0.171732
1.966,-0.182419
1.96625,-0.198059
1.9665,-0.201738
1.96675,-0.208686
1.967,-0.204304
1.96725,-0.204681
1.9675,-0.18496
1.96775,-0.171669
1.968,-0.14729
1.96825,-0.12261
1.9685,-0.0878782
1.96875,-0.0627095
1.969,-0.0197717
1.96925,0.00849304
1.9695,0.0501179
1.96975,0.0761347
1.97,0.111076
1.97025,0.143404
1.9705,0.167813
1.97075,0.190437
1.971,0.207737
1.97125,0.214465
1.9715,0.222757
1.97175,0.229117
1.972,0.223592
1.97225,0.212036
1.9725,0.198409
1.97275,0.188585
1.973,0.169167
1.97325,0.148974
1.9735,0.121579
1.97375,0.104025
1.974,0.0791489
1.97425,0.0651322
1.9745,0.0478077
1.97475,0.0263597
1.975,0.0114524
1.97525,0.0048814
1.9755,0.00289654
1.97575,-0.00572849
1.976,-0.00339503
1.97625,-0.00138785
1.9765,0.00153808
1.97675,0.0117267
1.977,0.0139588
1.97725,0.0167904
1.9775,0.0246765
1.97775,0.027019
1.978,0.0213648
1.97825,0.0242566
1.9785,0.0134159
1.97875,0.00800638
1.979,-0.00360454
1.97925,-0.0160837
1.9795,-0.0311265
1.97975,-0.0475744
1.98,-0.0753994
1.98025,-0.0959436
1.9805,-0.118945
1.98075,-0.134446
1.981,-0.15425
1.98125,-0.168445
1.9815,-0.188629
1.98175,-0.193744
1.982,-0.198137
1.98225,-0.200808
1.9825,-0.199571
1.98275,-0.184568
1.983,-0.172389
1.98325,-0.15758
1.9835,-0.128271
1.98375,-0.0991414
1.984,-0.068819
1.98425,-0.0369355
1.9845,-0.000454048
1.98475,0.0341758
1.985,0.0660404
1.98525,0.107824
1.9855,0.134141
1.98575,0.159775
1.986,0.192146
1.98625,0.210204
1.9865,0.219109
1.98675,0.233459
1.987,0.238554
1.98725,0.237474
1.9875,0.223111
1.98775,0.220258
1.988,0.201541
1.98825,0.181681
1.9885,0.161486
1.98875,0.149513
1.989,0.122829
1.98925,0.0969948
1.9895,0.0839513
1.98975,0.0610291
1.99,0.0505626
1.99025,0.0339591
1.9905,0.0256364
1.99075,0.0170062
1.991,0.00984337
1.99125,0.00749607
1.9915,0.00994291
1.99175,0.0151734
1.992,0.0142583
1.99225,0.0236974
1.9925,0.0231339
1.99275,0.0271937
1.993,0.0353687
1.99325,0.0323013
1.9935,0.0376864
1.99375,0.0288703
1.994,0.0220876
1.99425,0.0216536
1.9945,0.00358578
1.99475,-0.0122645
1.995,-0.0231853
1.99525,-0.0444332
1.9955,-0.0706347
1.99575,-0.0861364
1.996,-0.112384
1.99625,-0.131839
1.9965,-0.154233
1.99675,-0.162049
1.997,-0.17628
1.99725,-0.183676
1.9975,-0.185859
1.99775,-0.189892
1.998,-0.178348
1.99825,-0.168042
1.9985,-0.1514
1.99875,-0.129009
1.999,-0.098053
1.99925,-0.0755915
1.9995,-0.0388636
